%OpenBCI Raw EXG Data
%Number of channels = 8
%Sample Rate = 250 Hz
%Board = OpenBCI_GUI$BoardCytonSerial
Sample Index, EXG Channel 0, EXG Channel 1, EXG Channel 2, EXG Channel 3, EXG Channel 4, EXG Channel 5, EXG Channel 6, EXG Channel 7, Accel Channel 0, Accel Channel 1, Accel Channel 2, Other, Other, Other, Other, Other, Other, Other, Analog Channel 0, Analog Channel 1, Analog Channel 2, Timestamp, Other, Timestamp (Formatted)
122.0, -1702.6664856274708, -1454.2268460067328, -2882.212744022935, 1199.2604970050452, 3199.2275356325554, 3412.731398669648, 190.97330462614354, -4557.990081070671, 0.0, 0.0, 0.0, 192.0, 0.0, 0.0, 0.0, 0.0, 0.0, 0.0, 0.0, 0.0, 0.0, 1.700578830584731E9, 0.0, 2023-11-21 10:00:30.584
123.0, -1695.33511344613, -1448.2142267482552, -2876.602456164653, 1200.7580638835507, 3200.8592129777926, 3414.407779503796, 193.3649412828614, -4552.4021449568445, 0.0, 0.0, 0.0, 192.0, 0.0, 0.0, 0.0, 0.0, 0.0, 0.0, 0.0, 0.0, 0.0, 1.700578830584745E9, 0.0, 2023-11-21 10:00:30.584
124.0, -1698.531412903239, -1441.6875173673056, -2872.467383440421, 1201.80859587295, 3202.8708699787703, 3414.1395585703326, 189.20751681417428, -4555.441982202767, 0.032, 0.03, 0.98, 192.0, 1.0, 0.0, 0.0, 240.0, 30.0, 160.0, 0.0, 0.0, 0.0, 1.700578830584754E9, 0.0, 2023-11-21 10:00:30.584
125.0, -1706.8015583517026, -1444.1015057684788, -2871.729775873396, 1207.1283110533132, 3206.715370025083, 3414.050151592511, 187.24056330210726, -4556.894845592362, 0.032, 0.03, 0.98, 192.0, 0.0, 0.0, 0.0, 0.0, 0.0, 0.0, 0.0, 0.0, 0.0, 1.700578830584762E9, 0.0, 2023-11-21 10:00:30.584
0.0, 0.0, 0.0, 0.0, 0.0, 0.0, 0.0, 0.0, 0.0, 0.042, -0.022, 0.98, 192.0, 1.0, 80.0, 255.0, 80.0, 30.0, 160.0, 0.0, 0.0, 0.0, 1.700578830680206E9, 0.0, 2023-11-21 10:00:30.680
1.0, -1575.5074114212289, -1482.9711893762576, -3033.6458127076403, 1150.690156303663, 3161.318977036354, 3437.3406693149414, 257.76031705860106, -4413.262535722558, 0.042, -0.022, 0.98, 192.0, 0.0, 0.0, 0.0, 0.0, 0.0, 0.0, 0.0, 0.0, 0.0, 1.700578830697253E9, 0.0, 2023-11-21 10:00:30.697
2.0, -1567.2372659727653, -1474.477526483241, -3023.632231191663, 1156.9709964956041, 3165.7669741829604, 3440.5593205165055, 259.6155118483915, -4410.647381621287, 0.042, -0.022, 0.98, 192.0, 0.0, 0.0, 0.0, 0.0, 0.0, 0.0, 0.0, 0.0, 0.0, 1.700578830700301E9, 0.0, 2023-11-21 10:00:30.700
3.0, -1563.3257106930866, -1471.6165031929618, -3024.2580800364117, 1155.2275604280903, 3166.549285238896, 3441.408686805807, 257.35798565840554, -4409.328628698424, 0.042, -0.022, 0.98, 192.0, 0.0, 0.0, 0.0, 0.0, 0.0, 0.0, 0.0, 0.0, 0.0, 1.700578830704251E9, 0.0, 2023-11-21 10:00:30.704
4.0, -1566.4549549168296, -1481.4959742422075, -3033.377591774177, 1147.9632434801154, 3158.5026572349857, 3435.6195849918827, 252.15002920031898, -4411.832024077418, 0.042, -0.022, 0.98, 192.0, 0.0, 0.0, 0.0, 0.0, 0.0, 0.0, 0.0, 0.0, 0.0, 1.700578830708266E9, 0.0, 2023-11-21 10:00:30.708
5.0, -1575.3733009544972, -1482.0324161091348, -3029.8013126613278, 1151.4054121262327, 3157.6756426901393, 3438.190035604243, 255.30162516851726, -4410.2897537100025, 0.042, -0.022, 0.98, 192.0, 0.0, 0.0, 0.0, 0.0, 0.0, 0.0, 0.0, 0.0, 0.0, 1.700578830712303E9, 0.0, 2023-11-21 10:00:30.712
6.0, -1577.0720335331005, -1478.545543974107, -3025.509777725909, 1154.9369877501713, 3162.593026470307, 3444.023840907078, 257.9614827586988, -4409.0604077649605, 0.042, -0.022, 0.98, 192.0, 0.0, 0.0, 0.0, 0.0, 0.0, 0.0, 0.0, 0.0, 0.0, 1.700578830715302E9, 0.0, 2023-11-21 10:00:30.715
7.0, -1570.344158452053, -1469.8283636365372, -3016.434969477054, 1157.9544732516376, 3163.53179973743, 3443.7779717180697, 256.0168809910871, -4413.73192235612, 0.042, -0.022, 0.98, 192.0, 0.0, 0.0, 0.0, 0.0, 0.0, 0.0, 0.0, 0.0, 0.0, 1.700578830719302E9, 0.0, 2023-11-21 10:00:30.719
8.0, -1568.5560188956285, -1464.799221134093, -3015.719713654484, 1155.495781361554, 3160.5143142359634, 3438.435904793251, 252.32884315596144, -4420.638611392809, 0.046, -0.052000000000000005, 0.98, 192.0, 1.0, 112.0, 254.0, 96.0, 30.0, 160.0, 0.0, 0.0, 0.0, 1.700578830724278E9, 0.0, 2023-11-21 10:00:30.724
9.0, -1578.0778620335893, -1476.2433142952102, -3025.465074236998, 1153.5958830828529, 3161.967177625558, 3440.447561794229, 254.98870074614297, -4419.521024170044, 0.046, -0.052000000000000005, 0.98, 192.0, 0.0, 0.0, 0.0, 0.0, 0.0, 0.0, 0.0, 0.0, 0.0, 1.700578830728315E9, 0.0, 2023-11-21 10:00:30.728
10.0, -1568.9136468069134, -1473.1364218159226, -3021.7770364018725, 1158.4015081407438, 3167.0857271058235, 3444.7838002185586, 261.0460234935312, -4411.139119999304, 0.046, -0.052000000000000005, 0.98, 192.0, 0.0, 0.0, 0.0, 0.0, 0.0, 0.0, 0.0, 0.0, 0.0, 1.70057883073231E9, 0.0, 2023-11-21 10:00:30.732
11.0, -1573.831030587081, -1472.8011456490929, -3022.8722718801823, 1159.8320197858834, 3169.209142829078, 3443.1968263622316, 260.9342647712547, -4412.1673002442485, 0.046, -0.052000000000000005, 0.98, 192.0, 0.0, 0.0, 0.0, 0.0, 0.0, 0.0, 0.0, 0.0, 0.0, 1.700578830736279E9, 0.0, 2023-11-21 10:00:30.736
12.0, -1576.8261643440921, -1476.9138666288695, -3031.4553417510206, 1152.8582755158277, 3163.285930548421, 3438.122980370877, 259.2578839371066, -4415.497710168089, 0.046, -0.052000000000000005, 0.98, 192.0, 0.0, 0.0, 0.0, 0.0, 0.0, 0.0, 0.0, 0.0, 0.0, 1.700578830739335E9, 0.0, 2023-11-21 10:00:30.739
13.0, -1570.2547514742319, -1476.8244596510483, -3035.1210278416906, 1149.3266998918891, 3158.9943956130023, 3435.5301780140617, 258.34146241443904, -4418.179919502726, 0.046, -0.052000000000000005, 0.98, 192.0, 0.0, 0.0, 0.0, 0.0, 0.0, 0.0, 0.0, 0.0, 0.0, 1.700578830743346E9, 0.0, 2023-11-21 10:00:30.743
14.0, -1565.9408647943576, -1467.704947913283, -3018.379571244666, 1160.591979097364, 3163.8000206708934, 3442.123942628377, 262.14125897184124, -4415.6318206348205, 0.046, -0.052000000000000005, 0.98, 192.0, 0.0, 0.0, 0.0, 0.0, 0.0, 0.0, 0.0, 0.0, 0.0, 1.70057883074739E9, 0.0, 2023-11-21 10:00:30.747
15.0, -1574.8145073431144, -1471.5494479595957, -3019.921841612082, 1160.6143308418193, 3166.3257677943434, 3445.25318685212, 264.018805506087, -4418.001105547083, 0.046, -0.052000000000000005, 0.98, 192.0, 0.0, 0.0, 0.0, 0.0, 0.0, 0.0, 0.0, 0.0, 0.0, 1.700578830752358E9, 0.0, 2023-11-21 10:00:30.752
16.0, -1571.864077075014, -1480.8477736530035, -3032.5505772293304, 1156.881589517783, 3163.397689270698, 3442.8839019398574, 260.30841592650603, -4417.73288461362, 0.046, -0.052000000000000005, 0.98, 192.0, 0.0, 0.0, 0.0, 0.0, 0.0, 0.0, 0.0, 0.0, 0.0, 1.700578830756366E9, 0.0, 2023-11-21 10:00:30.756
17.0, -1567.639597372961, -1473.4716979827522, -3026.0015161039255, 1159.7649645525175, 3167.465706761564, 3445.029669407567, 261.0683752379865, -4414.782454345519, 0.046, -0.052000000000000005, 0.98, 192.0, 0.0, 0.0, 0.0, 0.0, 0.0, 0.0, 0.0, 0.0, 0.0, 1.700578830760421E9, 0.0, 2023-11-21 10:00:30.760
18.0, -1567.9972252842458, -1464.3521862449868, -3010.8023298743165, 1164.0341477434813, 3170.527895751941, 3447.1307333863656, 262.632997349858, -4414.625992134332, 0.04, -0.07200000000000001, 0.978, 192.0, 1.0, 64.0, 253.0, 192.0, 30.0, 144.0, 0.0, 0.0, 0.0, 1.700578830764381E9, 0.0, 2023-11-21 10:00:30.764
19.0, -1571.573504397095, -1465.3580147454757, -3006.2202222609785, 1162.2236564426014, 3167.4433550171084, 3443.219178106687, 255.61454959089156, -4421.711495126664, 0.04, -0.07200000000000001, 0.978, 192.0, 0.0, 0.0, 0.0, 0.0, 0.0, 0.0, 0.0, 0.0, 0.0, 1.700578830767475E9, 0.0, 2023-11-21 10:00:30.767
20.0, -1569.8077165851257, -1470.118936314456, -3023.922803869582, 1151.1818946816798, 3164.5376282379184, 3441.7216112281817, 252.73117455615696, -4423.343172471902, 0.04, -0.07200000000000001, 0.978, 192.0, 0.0, 0.0, 0.0, 0.0, 0.0, 0.0, 0.0, 0.0, 0.0, 1.700578830771382E9, 0.0, 2023-11-21 10:00:30.771
21.0, -1567.4831351617736, -1481.6971399423053, -3037.5797197317747, 1150.5560458369312, 3169.656177718184, 3447.0636781529997, 257.35798565840554, -4418.068160780449, 0.04, -0.07200000000000001, 0.978, 192.0, 0.0, 0.0, 0.0, 0.0, 0.0, 0.0, 0.0, 0.0, 0.0, 1.700578830775418E9, 0.0, 2023-11-21 10:00:30.775
22.0, -1566.700824105838, -1481.67478819785, -3026.046219592836, 1163.0283192429924, 3174.618264987262, 3451.6457857663377, 256.4639158801932, -4420.25863173707, 0.04, -0.07200000000000001, 0.978, 192.0, 0.0, 0.0, 0.0, 0.0, 0.0, 0.0, 0.0, 0.0, 0.0, 1.700578830779418E9, 0.0, 2023-11-21 10:00:30.779
23.0, -1558.2965681906426, -1470.118936314456, -3019.430103234065, 1163.6988715766515, 3172.137221352723, 3451.5563787885167, 258.9673112591876, -4416.34707645739, 0.04, -0.07200000000000001, 0.978, 192.0, 0.0, 0.0, 0.0, 0.0, 0.0, 0.0, 0.0, 0.0, 0.0, 1.700578830784406E9, 0.0, 2023-11-21 10:00:30.784
24.0, -1573.4286991868853, -1484.5358114881292, -3040.820722677794, 1145.102220189836, 3157.3850700122202, 3443.8226752069804, 257.246226936129, -4420.549204414989, 0.04, -0.07200000000000001, 0.978, 192.0, 0.0, 0.0, 0.0, 0.0, 0.0, 0.0, 0.0, 0.0, 0.0, 1.700578830788418E9, 0.0, 2023-11-21 10:00:30.788
25.0, -1579.530725423184, -1486.2568958111879, -3039.5466732438417, 1145.6610138012188, 3156.178075811634, 3441.2969280835305, 256.62037809138036, -4421.823253848941, 0.04, -0.07200000000000001, 0.978, 192.0, 0.0, 0.0, 0.0, 0.0, 0.0, 0.0, 0.0, 0.0, 0.0, 1.700578830792429E9, 0.0, 2023-11-21 10:00:30.792
26.0, -1579.0389870451675, -1482.9041341428917, -3033.914033641104, 1151.4501156151434, 3158.726174679539, 3441.0734106389777, 257.78266880305637, -4421.420922448745, 0.04, -0.07200000000000001, 0.978, 192.0, 0.0, 0.0, 0.0, 0.0, 0.0, 0.0, 0.0, 0.0, 0.0, 1.700578830795435E9, 0.0, 2023-11-21 10:00:30.795
27.0, -1566.6561206169274, -1472.1752968043443, -3023.900452125127, 1161.3742901532996, 3166.0575468608795, 3449.924701443279, 264.890523539844, -4412.212003733159, 0.04, -0.07200000000000001, 0.978, 192.0, 0.0, 0.0, 0.0, 0.0, 0.0, 0.0, 0.0, 0.0, 0.0, 1.700578830799439E9, 0.0, 2023-11-21 10:00:30.799
28.0, -1561.537571136662, -1476.2656660396656, -3029.9130713836043, 1155.495781361554, 3160.559017724874, 3448.829465964969, 263.21414270569596, -4411.8767275663295, 0.042, -0.08, 0.98, 192.0, 1.0, 80.0, 253.0, 128.0, 30.0, 160.0, 0.0, 0.0, 0.0, 1.700578830803476E9, 0.0, 2023-11-21 10:00:30.803
29.0, -1561.9175507924022, -1470.2083432922773, -3020.212414290001, 1160.234351186079, 3162.950654381592, 3450.9528816882234, 263.0353287500535, -4415.967096801651, 0.042, -0.08, 0.98, 192.0, 0.0, 0.0, 0.0, 0.0, 0.0, 0.0, 0.0, 0.0, 0.0, 1.700578830807469E9, 0.0, 2023-11-21 10:00:30.807
30.0, -1567.8184113286034, -1467.995520591202, -3018.245460777934, 1165.8222872999058, 3167.0857271058235, 3452.428096822274, 264.51054388410375, -4417.576422402432, 0.042, -0.08, 0.98, 192.0, 0.0, 0.0, 0.0, 0.0, 0.0, 0.0, 0.0, 0.0, 0.0, 1.70057883081251E9, 0.0, 2023-11-21 10:00:30.812
31.0, -1567.9078183064246, -1474.477526483241, -3028.16963531609, 1160.9272552641935, 3166.6386922167176, 3452.673966011282, 263.3482531724278, -4422.605564904877, 0.042, -0.08, 0.98, 192.0, 0.0, 0.0, 0.0, 0.0, 0.0, 0.0, 0.0, 0.0, 0.0, 1.700578830816488E9, 0.0, 2023-11-21 10:00:30.816
32.0, -1565.0020915272346, -1475.3045410280874, -3028.9072428831155, 1158.0215284850035, 3164.3141107933657, 3452.405745077818, 263.6835293392574, -4420.079817781427, 0.042, -0.08, 0.98, 192.0, 0.0, 0.0, 0.0, 0.0, 0.0, 0.0, 0.0, 0.0, 0.0, 1.70057883081949E9, 0.0, 2023-11-21 10:00:30.819
33.0, -1564.6221118714943, -1472.4658694822633, -3024.280431780867, 1160.1225924638024, 3165.163477082667, 3452.53985554455, 262.2530176941178, -4419.766893359053, 0.042, -0.08, 0.98, 192.0, 0.0, 0.0, 0.0, 0.0, 0.0, 0.0, 0.0, 0.0, 0.0, 1.700578830823504E9, 0.0, 2023-11-21 10:00:30.823
34.0, -1563.5268763931842, -1469.1354595584226, -3020.4806352234646, 1163.654168087741, 3169.119735851257, 3452.092820655444, 263.54941887252556, -4418.738713114109, 0.042, -0.08, 0.98, 192.0, 0.0, 0.0, 0.0, 0.0, 0.0, 0.0, 0.0, 0.0, 0.0, 1.700578830827498E9, 0.0, 2023-11-21 10:00:30.827
35.0, -1560.8223153140923, -1467.5261339576405, -3019.4748067229757, 1163.6094645988303, 3168.3821282842314, 3449.164742131799, 263.48236363915964, -4415.788282846008, 0.042, -0.08, 0.98, 192.0, 0.0, 0.0, 0.0, 0.0, 0.0, 0.0, 0.0, 0.0, 0.0, 1.700578830831522E9, 0.0, 2023-11-21 10:00:30.831
36.0, -1565.0691467606005, -1469.604846191984, -3019.921841612082, 1164.3917756547662, 3167.823334672849, 3448.15891363131, 262.14125897184124, -4416.481186924122, 0.042, -0.08, 0.98, 192.0, 0.0, 0.0, 0.0, 0.0, 0.0, 0.0, 0.0, 0.0, 0.0, 1.700578830835568E9, 0.0, 2023-11-21 10:00:30.835
37.0, -1567.8631148175139, -1463.8604478669702, -3008.7459693844285, 1167.6104268563304, 3168.873866662248, 3445.4990560411284, 260.5095816266038, -4422.918489327251, 0.042, -0.08, 0.98, 192.0, 0.0, 0.0, 0.0, 0.0, 0.0, 0.0, 0.0, 0.0, 0.0, 1.700578830840539E9, 0.0, 2023-11-21 10:00:30.840
38.0, -1573.2275334867877, -1458.2054565197775, -3000.6546378916073, 1167.297502433956, 3168.4491835175972, 3441.2298728501646, 255.7263083131681, -4428.461721952167, 0.042, -0.08, 0.98, 192.0, 1.0, 80.0, 253.0, 128.0, 30.0, 160.0, 0.0, 0.0, 0.0, 1.700578830844589E9, 0.0, 2023-11-21 10:00:30.844
39.0, -1561.6940333478492, -1467.2132095352663, -3023.6098794472077, 1155.9875197395706, 3161.050756102891, 3439.5981955049274, 254.98870074614297, -4423.231413749625, 0.042, -0.08, 0.98, 192.0, 0.0, 0.0, 0.0, 0.0, 0.0, 0.0, 0.0, 0.0, 0.0, 1.700578830847574E9, 0.0, 2023-11-21 10:00:30.847
40.0, -1558.5647891241063, -1476.1986108062997, -3037.758533687417, 1151.6065778263305, 3164.5152764934633, 3448.87416945388, 264.15291597281885, -4409.418035676245, 0.042, -0.08, 0.98, 192.0, 0.0, 0.0, 0.0, 0.0, 0.0, 0.0, 0.0, 0.0, 0.0, 1.700578830851557E9, 0.0, 2023-11-21 10:00:30.851
41.0, -1575.954446310335, -1469.7836601476265, -3024.4815974809644, 1156.5016098620426, 3167.175134083645, 3449.164742131799, 261.89538978283286, -4420.482149181623, 0.042, -0.08, 0.98, 192.0, 0.0, 0.0, 0.0, 0.0, 0.0, 0.0, 0.0, 0.0, 0.0, 1.700578830855576E9, 0.0, 2023-11-21 10:00:30.855
42.0, -1570.411213685419, -1461.1111832989675, -3016.457321221509, 1161.3295866643891, 3169.4103085291754, 3449.500018298628, 262.14125897184124, -4422.694971882698, 0.042, -0.08, 0.98, 192.0, 0.0, 0.0, 0.0, 0.0, 0.0, 0.0, 0.0, 0.0, 0.0, 1.700578830859583E9, 0.0, 2023-11-21 10:00:30.859
43.0, -1564.8009258271368, -1461.3570524879758, -3007.337809483744, 1164.972921010604, 3172.405442286187, 3452.316338099997, 264.8458200509334, -4414.625992134332, 0.042, -0.08, 0.98, 192.0, 0.0, 0.0, 0.0, 0.0, 0.0, 0.0, 0.0, 0.0, 0.0, 1.700578830863649E9, 0.0, 2023-11-21 10:00:30.863
44.0, -1573.2051817423323, -1465.4921252122076, -3009.572983929275, 1160.457868630632, 3166.4151747721644, 3445.4543525522176, 256.9109507692994, -4422.2032335046815, 0.042, -0.08, 0.98, 192.0, 0.0, 0.0, 0.0, 0.0, 0.0, 0.0, 0.0, 0.0, 0.0, 1.700578830867605E9, 0.0, 2023-11-21 10:00:30.867
45.0, -1573.763975353715, -1463.4581164667745, -3022.939327113548, 1156.9039412622383, 3165.811677671871, 3445.4543525522176, 256.8215437914782, -4421.979716060128, 0.042, -0.08, 0.98, 192.0, 0.0, 0.0, 0.0, 0.0, 0.0, 0.0, 0.0, 0.0, 0.0, 1.700578830872667E9, 0.0, 2023-11-21 10:00:30.872
46.0, -1570.701786363338, -1469.2025147917886, -3031.4776934954757, 1156.2780924174897, 3171.131392852234, 3450.483495054662, 263.54941887252556, -4415.229489234625, 0.042, -0.08, 0.98, 192.0, 0.0, 0.0, 0.0, 0.0, 0.0, 0.0, 0.0, 0.0, 0.0, 1.700578830875655E9, 0.0, 2023-11-21 10:00:30.875
47.0, -1570.2100479853211, -1477.2714945401544, -3034.5398824858526, 1154.4452493721544, 3169.656177718184, 3447.1083816419105, 262.0295002495647, -4420.146873014793, 0.042, -0.08, 0.98, 192.0, 0.0, 0.0, 0.0, 0.0, 0.0, 0.0, 0.0, 0.0, 0.0, 1.700578830879651E9, 0.0, 2023-11-21 10:00:30.879
48.0, -1570.2100479853211, -1470.5883229480175, -3026.6720684375846, 1155.853409272839, 3172.5842562418293, 3445.990794419145, 261.80598280501164, -4421.107998026371, 0.044, -0.08, 0.978, 192.0, 1.0, 96.0, 253.0, 128.0, 30.0, 144.0, 0.0, 0.0, 0.0, 1.700578830883652E9, 0.0, 2023-11-21 10:00:30.883
49.0, -1577.4967166777512, -1463.7486891446936, -3012.7692833863834, 1161.1507727087467, 3173.1206981087566, 3445.8119804635026, 263.10238398341943, -4424.4384079502115, 0.044, -0.08, 0.978, 192.0, 0.0, 0.0, 0.0, 0.0, 0.0, 0.0, 0.0, 0.0, 0.0, 1.700578830887654E9, 0.0, 2023-11-21 10:00:30.887
50.0, -1566.5667136391062, -1461.9381978438137, -3012.12108279718, 1162.693043076163, 3173.2101050865776, 3448.87416945388, 266.23162820716243, -4420.146873014793, 0.044, -0.08, 0.978, 192.0, 0.0, 0.0, 0.0, 0.0, 0.0, 0.0, 0.0, 0.0, 0.0, 1.700578830891657E9, 0.0, 2023-11-21 10:00:30.891
51.0, -1562.4986961482402, -1472.868200882459, -3029.3542777722214, 1152.7688685380065, 3168.784459684427, 3449.9470531877346, 267.34921542992777, -4418.582250902921, 0.044, -0.08, 0.978, 192.0, 0.0, 0.0, 0.0, 0.0, 0.0, 0.0, 0.0, 0.0, 0.0, 1.700578830895665E9, 0.0, 2023-11-21 10:00:30.895
52.0, -1569.3606816960196, -1471.124764814945, -3026.9849928599588, 1157.2168656846125, 3171.846648674804, 3451.154047388321, 267.68449159675737, -4421.845605593397, 0.044, -0.08, 0.978, 192.0, 0.0, 0.0, 0.0, 0.0, 0.0, 0.0, 0.0, 0.0, 0.0, 1.700578830900667E9, 0.0, 2023-11-21 10:00:30.900
53.0, -1568.2877979621646, -1470.5659712035622, -3025.509777725909, 1159.5190953635092, 3174.037119631424, 3446.549588030528, 264.97993051766525, -4422.717323627153, 0.044, -0.08, 0.978, 192.0, 0.0, 0.0, 0.0, 0.0, 0.0, 0.0, 0.0, 0.0, 0.0, 1.700578830903668E9, 0.0, 2023-11-21 10:00:30.903
54.0, -1565.2703124606983, -1467.8837618689254, -3022.1346643131574, 1155.652243572741, 3171.9584073970805, 3442.928605428768, 263.54941887252556, -4422.87378583834, 0.044, -0.08, 0.978, 192.0, 0.0, 0.0, 0.0, 0.0, 0.0, 0.0, 0.0, 0.0, 0.0, 1.700578830907696E9, 0.0, 2023-11-21 10:00:30.907
55.0, -1559.6823763468715, -1461.9158460993585, -3017.016114832892, 1156.166333695213, 3172.696014964106, 3444.6273380073712, 264.21997120618477, -4420.571556159443, 0.044, -0.08, 0.978, 192.0, 0.0, 0.0, 0.0, 0.0, 0.0, 0.0, 0.0, 0.0, 0.0, 1.700578830911681E9, 0.0, 2023-11-21 10:00:30.911
56.0, -1563.4151176709079, -1467.2355612797214, -3019.7430276564396, 1162.3130634204226, 3180.1838493566333, 3449.0082799206116, 265.67283459577976, -4420.415093948257, 0.044, -0.08, 0.978, 192.0, 0.0, 0.0, 0.0, 0.0, 0.0, 0.0, 0.0, 0.0, 0.0, 1.700578830915757E9, 0.0, 2023-11-21 10:00:30.915
57.0, -1560.3976321694413, -1461.66997691035, -3012.277545008367, 1164.3247204214001, 3179.6921109786167, 3448.9412246872457, 265.27050319558424, -4419.252803236581, 0.044, -0.08, 0.978, 192.0, 0.0, 0.0, 0.0, 0.0, 0.0, 0.0, 0.0, 0.0, 0.0, 1.700578830919651E9, 0.0, 2023-11-21 10:00:30.919
58.0, -1561.5822746255726, -1464.866276367459, -3021.97820210197, 1159.4073366412326, 3174.5512097538963, 3445.7672769745923, 263.0129770055982, -4416.883518324318, 0.042, -0.082, 0.978, 192.0, 1.0, 80.0, 253.0, 112.0, 30.0, 144.0, 0.0, 0.0, 0.0, 1.700578830923703E9, 0.0, 2023-11-21 10:00:30.923
59.0, -1559.637672857961, -1469.4260322363416, -3029.153112072124, 1157.0156999845149, 3176.6075702437843, 3447.510713042106, 263.48236363915964, -4413.709570611664, 0.042, -0.082, 0.978, 192.0, 0.0, 0.0, 0.0, 0.0, 0.0, 0.0, 0.0, 0.0, 0.0, 1.700578830928729E9, 0.0, 2023-11-21 10:00:30.928
60.0, -1556.374318167486, -1458.0042908196797, -3013.8421671202386, 1168.7950693124617, 3191.6726460066616, 3457.8372189804577, 268.3997474193272, -4420.370390459346, 0.042, -0.082, 0.978, 192.0, 0.0, 0.0, 0.0, 0.0, 0.0, 0.0, 0.0, 0.0, 0.0, 1.700578830931756E9, 0.0, 2023-11-21 10:00:30.931
61.0, -1576.535591666173, -1463.636930422417, -3012.948097342026, 1166.4034326557437, 3188.588105271829, 3454.0150706786003, 264.48819213964845, -4432.730905143131, 0.042, -0.082, 0.978, 192.0, 0.0, 0.0, 0.0, 0.0, 0.0, 0.0, 0.0, 0.0, 0.0, 1.700578830935757E9, 0.0, 2023-11-21 10:00:30.935
62.0, -1575.9991497992457, -1472.2647037821655, -3024.280431780867, 1154.4452493721544, 3181.167326112667, 3443.1968263622316, 258.69909032572394, -4433.848492365896, 0.042, -0.082, 0.978, 192.0, 0.0, 0.0, 0.0, 0.0, 0.0, 0.0, 0.0, 0.0, 0.0, 1.700578830939729E9, 0.0, 2023-11-21 10:00:30.939
63.0, -1568.2430944732541, -1469.3366252585204, -3027.186158560057, 1151.137191192769, 3183.2013348581, 3442.772143217581, 261.85068629392225, -4424.63957365031, 0.042, -0.082, 0.978, 192.0, 0.0, 0.0, 0.0, 0.0, 0.0, 0.0, 0.0, 0.0, 0.0, 1.70057883094374E9, 0.0, 2023-11-21 10:00:30.943
64.0, -1562.9904345262569, -1470.9906543482132, -3024.571004458786, 1153.7746970384953, 3180.854401690293, 3443.263881595598, 261.87303803837756, -4426.248899251092, 0.042, -0.082, 0.978, 192.0, 0.0, 0.0, 0.0, 0.0, 0.0, 0.0, 0.0, 0.0, 0.0, 1.700578830947749E9, 0.0, 2023-11-21 10:00:30.947
65.0, -1564.4432979158519, -1465.089793812012, -3006.8460711057273, 1165.9563977666376, 3186.688206993128, 3450.282329354564, 264.21997120618477, -4426.941803329206, 0.042, -0.082, 0.978, 192.0, 0.0, 0.0, 0.0, 0.0, 0.0, 0.0, 0.0, 0.0, 0.0, 1.700578830951773E9, 0.0, 2023-11-21 10:00:30.951
66.0, -1575.0380247876674, -1468.442555480308, -3015.138568298646, 1159.9884819970707, 3183.4472040471082, 3446.862512452902, 259.03436649255354, -4437.514178456567, 0.042, -0.082, 0.978, 192.0, 0.0, 0.0, 0.0, 0.0, 0.0, 0.0, 0.0, 0.0, 0.0, 1.700578830955777E9, 0.0, 2023-11-21 10:00:30.955
67.0, -1569.3383299515642, -1475.058671839079, -3026.6497166931294, 1154.7805255389842, 3182.10609937979, 3445.320242085486, 261.3142444269949, -4430.920413842251, 0.042, -0.082, 0.978, 192.0, 0.0, 0.0, 0.0, 0.0, 0.0, 0.0, 0.0, 0.0, 0.0, 1.700578830959791E9, 0.0, 2023-11-21 10:00:30.959
68.0, -1569.2265712292876, -1475.4610032392745, -3024.7498184144283, 1154.5123046055205, 3182.173154613156, 3444.8061519630137, 262.3647764163943, -4433.602623176887, 0.044, -0.08, 0.98, 192.0, 1.0, 96.0, 253.0, 128.0, 30.0, 160.0, 0.0, 0.0, 0.0, 1.700578830963793E9, 0.0, 2023-11-21 10:00:30.963
69.0, -1563.9292077933799, -1474.1422503164115, -3027.7002486825286, 1153.8864557607717, 3181.748471468505, 3444.247358351631, 262.2753694385731, -4431.92624234274, 0.044, -0.08, 0.98, 192.0, 0.0, 0.0, 0.0, 0.0, 0.0, 0.0, 0.0, 0.0, 0.0, 1.700578830968819E9, 0.0, 2023-11-21 10:00:30.968
70.0, -1565.8067543276256, -1479.6184277079617, -3035.299841797333, 1149.9301969921823, 3181.3908435572203, 3443.1744746177765, 262.90121828332167, -4428.975812074639, 0.044, -0.08, 0.98, 192.0, 0.0, 0.0, 0.0, 0.0, 0.0, 0.0, 0.0, 0.0, 0.0, 1.700578830971819E9, 0.0, 2023-11-21 10:00:30.971
71.0, -1571.6629113749161, -1469.67190142535, -3022.894623624638, 1152.6794615601852, 3184.721253481061, 3443.576806017972, 264.6446543508356, -4430.808655119974, 0.044, -0.08, 0.98, 192.0, 0.0, 0.0, 0.0, 0.0, 0.0, 0.0, 0.0, 0.0, 0.0, 1.700578830974829E9, 0.0, 2023-11-21 10:00:30.974
72.0, -1564.4880014047626, -1461.9829013327244, -3016.345562499233, 1155.2275604280903, 3185.5706197703626, 3442.0121839061003, 266.1198694848859, -4431.658021409276, 0.044, -0.08, 0.98, 192.0, 0.0, 0.0, 0.0, 0.0, 0.0, 0.0, 0.0, 0.0, 0.0, 1.700578830979825E9, 0.0, 2023-11-21 10:00:30.979
73.0, -1559.9282455358798, -1471.348282259498, -3027.6778969380734, 1153.5288278494868, 3182.4190238021642, 3439.8887681828464, 265.0693374954865, -4430.920413842251, 0.044, -0.08, 0.98, 192.0, 0.0, 0.0, 0.0, 0.0, 0.0, 0.0, 0.0, 0.0, 0.0, 1.700578830983835E9, 0.0, 2023-11-21 10:00:30.983
74.0, -1566.49965840574, -1469.6495496808948, -3023.6769346805736, 1160.077888974892, 3188.878677949748, 3444.8285037074693, 266.92453228527694, -4430.2498615085915, 0.044, -0.08, 0.98, 192.0, 0.0, 0.0, 0.0, 0.0, 0.0, 0.0, 0.0, 0.0, 0.0, 1.700578830987845E9, 0.0, 2023-11-21 10:00:30.987
75.0, -1566.9466932948462, -1463.4581164667745, -3016.010286332403, 1160.5025721195427, 3187.492869793519, 3443.0627158955, 265.1140409843971, -4431.948594087195, 0.044, -0.08, 0.98, 192.0, 0.0, 0.0, 0.0, 0.0, 0.0, 0.0, 0.0, 0.0, 0.0, 1.700578830991869E9, 0.0, 2023-11-21 10:00:30.991
76.0, -1562.7445653372486, -1459.3006919980876, -3010.958792085504, 1162.9612640096266, 3190.8232797173596, 3442.7944949620364, 266.00811076260936, -4431.322745242446, 0.044, -0.08, 0.98, 192.0, 0.0, 0.0, 0.0, 0.0, 0.0, 0.0, 0.0, 0.0, 0.0, 1.700578830994851E9, 0.0, 2023-11-21 10:00:30.994
77.0, -1562.923379292891, -1469.090756069512, -3022.4475887355316, 1156.166333695213, 3188.3198843383652, 3444.672041496282, 267.1704014742853, -4427.344134729402, 0.044, -0.08, 0.98, 192.0, 0.0, 0.0, 0.0, 0.0, 0.0, 0.0, 0.0, 0.0, 0.0, 1.700578830998886E9, 0.0, 2023-11-21 10:00:30.998
78.0, -1571.3499869525417, -1478.0538055960901, -3029.1978155610345, 1150.5113423480204, 3180.139145867723, 3442.8615501954023, 262.0295002495647, -4429.646364408299, 0.046, -0.08, 0.982, 192.0, 1.0, 112.0, 253.0, 128.0, 30.0, 176.0, 0.0, 0.0, 0.0, 1.700578831002883E9, 0.0, 2023-11-21 10:00:31.002
79.0, -1566.1643822389105, -1473.9857881052242, -3023.6769346805736, 1153.975862738593, 3178.0604336333795, 3446.281367097064, 262.6553490943133, -4421.599736404388, 0.046, -0.08, 0.982, 192.0, 0.0, 0.0, 0.0, 0.0, 0.0, 0.0, 0.0, 0.0, 0.0, 1.700578831006933E9, 0.0, 2023-11-21 10:00:31.006
80.0, -1560.442335658352, -1462.832267622026, -3012.9928008309366, 1161.620159342308, 3184.8330122033376, 3451.466971810695, 269.5396863865479, -4417.241146235603, 0.046, -0.08, 0.982, 192.0, 0.0, 0.0, 0.0, 0.0, 0.0, 0.0, 0.0, 0.0, 0.0, 1.700578831011875E9, 0.0, 2023-11-21 10:00:31.011
81.0, -1558.6094926130168, -1466.542657201607, -3021.1064840682134, 1155.2722639170008, 3179.9603319120806, 3443.1297711288657, 267.7962503190339, -4422.046771293494, 0.046, -0.08, 0.982, 192.0, 0.0, 0.0, 0.0, 0.0, 0.0, 0.0, 0.0, 0.0, 0.0, 1.700578831015898E9, 0.0, 2023-11-21 10:00:31.015
82.0, -1560.8446670585474, -1473.0693665825568, -3028.2590422939115, 1147.717374291107, 3172.1819248416336, 3433.7867419465474, 261.80598280501164, -4426.226547506636, 0.046, -0.08, 0.982, 192.0, 0.0, 0.0, 0.0, 0.0, 0.0, 0.0, 0.0, 0.0, 0.0, 1.700578831019913E9, 0.0, 2023-11-21 10:00:31.019
83.0, -1562.9680827818017, -1469.381328747431, -3020.7041526680177, 1155.3840226392774, 3180.943808668114, 3441.363983316897, 268.1315264858635, -4423.007896305072, 0.046, -0.08, 0.982, 192.0, 0.0, 0.0, 0.0, 0.0, 0.0, 0.0, 0.0, 0.0, 0.0, 1.70057883102292E9, 0.0, 2023-11-21 10:00:31.022
84.0, -1577.5190684222066, -1474.7457474167047, -3021.4417602350427, 1157.2392174290678, 3185.5706197703626, 3445.297890341031, 266.99158751864286, -4431.143931286804, 0.046, -0.08, 0.982, 192.0, 0.0, 0.0, 0.0, 0.0, 0.0, 0.0, 0.0, 0.0, 0.0, 1.700578831026915E9, 0.0, 2023-11-21 10:00:31.026
85.0, -1580.6930161348603, -1474.9692648612577, -3017.731370655462, 1155.3393191503667, 3175.266465576466, 3441.699259483726, 261.53776187154796, -4431.993297576106, 0.046, -0.08, 0.982, 192.0, 0.0, 0.0, 0.0, 0.0, 0.0, 0.0, 0.0, 0.0, 0.0, 1.700578831030938E9, 0.0, 2023-11-21 10:00:31.030
86.0, -1571.6405596304608, -1471.7282619152381, -3021.4194084905876, 1150.8913220037607, 3169.097384106801, 3441.028707150067, 263.10238398341943, -4430.786303375519, 0.046, -0.08, 0.982, 192.0, 0.0, 0.0, 0.0, 0.0, 0.0, 0.0, 0.0, 0.0, 0.0, 1.700578831035115E9, 0.0, 2023-11-21 10:00:31.035
87.0, -1563.9515595378352, -1473.516401471663, -3029.041353349847, 1147.1585806797243, 3170.3267300518432, 3443.7779717180697, 268.4444509082378, -4428.30525974098, 0.046, -0.08, 0.982, 192.0, 0.0, 0.0, 0.0, 0.0, 0.0, 0.0, 0.0, 0.0, 0.0, 1.700578831039986E9, 0.0, 2023-11-21 10:00:31.039
88.0, -1568.2430944732541, -1472.2423520377104, -3017.6419636776404, 1153.5958830828529, 3175.0876516208236, 3444.6943932407376, 269.38322417536074, -4424.326649227935, 0.042, -0.084, 0.988, 192.0, 1.0, 80.0, 253.0, 96.0, 30.0, 224.0, 0.0, 0.0, 0.0, 1.700578831043947E9, 0.0, 2023-11-21 10:00:31.043
89.0, -1573.1604782534216, -1468.643721180406, -2998.1959460015237, 1163.0506709874478, 3179.937980167625, 3445.700221741226, 266.857477051911, -4427.478245196134, 0.042, -0.084, 0.988, 192.0, 0.0, 0.0, 0.0, 0.0, 0.0, 0.0, 0.0, 0.0, 0.0, 1.700578831047957E9, 0.0, 2023-11-21 10:00:31.047
90.0, -1575.4180044434077, -1473.8069741495817, -3020.279469523367, 1149.3714033807998, 3171.6678347191614, 3439.6205472493825, 263.81763980598924, -4429.4228469637455, 0.042, -0.084, 0.988, 192.0, 0.0, 0.0, 0.0, 0.0, 0.0, 0.0, 0.0, 0.0, 0.0, 1.700578831050968E9, 0.0, 2023-11-21 10:00:31.050
91.0, -1562.5210478926956, -1479.7748899191488, -3042.810027934316, 1146.108048690325, 3175.311169065377, 3444.448524051729, 270.9925497761428, -4424.930146328228, 0.042, -0.084, 0.988, 192.0, 0.0, 0.0, 0.0, 0.0, 0.0, 0.0, 0.0, 0.0, 0.0, 1.700578831054975E9, 0.0, 2023-11-21 10:00:31.054
92.0, -1560.5317426361732, -1473.5834567050288, -3031.6788591955733, 1150.2207696701014, 3181.457898790586, 3445.4990560411284, 273.115965499397, -4422.605564904877, 0.042, -0.084, 0.988, 192.0, 0.0, 0.0, 0.0, 0.0, 0.0, 0.0, 0.0, 0.0, 0.0, 1.700578831058996E9, 0.0, 2023-11-21 10:00:31.058
93.0, -1560.3976321694413, -1464.4639449672634, -3015.2950305098334, 1157.2168656846125, 3189.0798436498458, 3447.510713042106, 273.25007596612886, -4419.766893359053, 0.042, -0.084, 0.988, 192.0, 0.0, 0.0, 0.0, 0.0, 0.0, 0.0, 0.0, 0.0, 0.0, 1.700578831062999E9, 0.0, 2023-11-21 10:00:31.062
94.0, -1554.8320478000699, -1460.6641484098611, -3013.4845392089537, 1156.814534284417, 3187.269352348966, 3449.8799979543687, 271.8866195543551, -4418.291678225002, 0.042, -0.084, 0.988, 192.0, 0.0, 0.0, 0.0, 0.0, 0.0, 0.0, 0.0, 0.0, 0.0, 1.700578831067957E9, 0.0, 2023-11-21 10:00:31.067
95.0, -1567.4607834173185, -1479.6631311968722, -3033.5117022409086, 1142.4200108551993, 3174.595913242807, 3441.743962972637, 262.632997349858, -4424.997201561595, 0.042, -0.084, 0.988, 192.0, 0.0, 0.0, 0.0, 0.0, 0.0, 0.0, 0.0, 0.0, 0.0, 1.700578831072003E9, 0.0, 2023-11-21 10:00:31.072
96.0, -1565.6502921164385, -1479.9537038747912, -3030.2036440615234, 1147.0915254463584, 3180.6755877346504, 3444.984965918656, 265.4046136623161, -4422.2032335046815, 0.042, -0.084, 0.988, 192.0, 0.0, 0.0, 0.0, 0.0, 0.0, 0.0, 0.0, 0.0, 0.0, 1.700578831076014E9, 0.0, 2023-11-21 10:00:31.076
97.0, -1560.732908336271, -1471.9517793597913, -3024.012210847403, 1152.2547784155345, 3186.2635238484772, 3447.264843853098, 270.05377650901994, -4418.805768347474, 0.042, -0.084, 0.988, 192.0, 0.0, 0.0, 0.0, 0.0, 0.0, 0.0, 0.0, 0.0, 0.0, 1.700578831079032E9, 0.0, 2023-11-21 10:00:31.079
98.0, -1561.9175507924022, -1461.8934943549032, -3013.663353164596, 1158.7367843075735, 3191.873811706759, 3450.2376258656536, 275.7087678562126, -4413.7542741005755, 0.042, -0.084, 0.988, 192.0, 0.0, 0.0, 0.0, 0.0, 0.0, 0.0, 0.0, 0.0, 0.0, 1.700578831083011E9, 0.0, 2023-11-21 10:00:31.083
99.0, -1569.897123562947, -1467.123802557445, -3023.0287340913696, 1148.522037091498, 3180.6085325012846, 3441.006355405612, 270.05377650901994, -4418.4928439251, 0.046, -0.08, 0.982, 192.0, 1.0, 112.0, 253.0, 128.0, 30.0, 176.0, 0.0, 0.0, 0.0, 1.700578831087058E9, 0.0, 2023-11-21 10:00:31.087
100.0, -1564.5550566381285, -1476.7574044176822, -3033.958737130015, 1146.1304004347803, 3180.3850150567314, 3442.123942628377, 270.2102387202071, -4412.63668687781, 0.046, -0.08, 0.982, 192.0, 0.0, 0.0, 0.0, 0.0, 0.0, 0.0, 0.0, 0.0, 0.0, 1.700578831091064E9, 0.0, 2023-11-21 10:00:31.091
101.0, -1556.7095943343156, -1464.7098141562717, -3025.822702148283, 1152.880627260283, 3183.6483697472063, 3444.582634518461, 272.46776491019307, -4407.026399019528, 0.046, -0.08, 0.982, 192.0, 0.0, 0.0, 0.0, 0.0, 0.0, 0.0, 0.0, 0.0, 0.0, 1.700578831096077E9, 0.0, 2023-11-21 10:00:31.096
102.0, -1551.4569343873186, -1459.054822809079, -3020.011248589903, 1156.233388928579, 3185.6153232592733, 3447.3766025753744, 273.27242771058417, -4403.87480305133, 0.046, -0.08, 0.982, 192.0, 0.0, 0.0, 0.0, 0.0, 0.0, 0.0, 0.0, 0.0, 0.0, 1.700578831100099E9, 0.0, 2023-11-21 10:00:31.100
103.0, -1564.376242682486, -1462.7428606442047, -3017.2619840219004, 1159.5637988524197, 3185.8835441927367, 3445.4767042966732, 268.3997474193272, -4413.262535722558, 0.046, -0.08, 0.982, 192.0, 0.0, 0.0, 0.0, 0.0, 0.0, 0.0, 0.0, 0.0, 0.0, 1.700578831104071E9, 0.0, 2023-11-21 10:00:31.104
104.0, -1558.6541961019275, -1458.8760088534366, -3017.016114832892, 1160.4355168861769, 3184.8553639477927, 3444.649689751827, 267.7068433412127, -4407.92046879774, 0.046, -0.08, 0.982, 192.0, 0.0, 0.0, 0.0, 0.0, 0.0, 0.0, 0.0, 0.0, 0.0, 1.700578831107065E9, 0.0, 2023-11-21 10:00:31.107
105.0, -1565.3820711829749, -1468.1072793134786, -3030.136588828157, 1150.198417925646, 3177.948674911103, 3440.4699135386845, 263.3259014279725, -4408.1216344978375, 0.046, -0.08, 0.982, 192.0, 0.0, 0.0, 0.0, 0.0, 0.0, 0.0, 0.0, 0.0, 0.0, 1.700578831111107E9, 0.0, 2023-11-21 10:00:31.111
106.0, -1562.4316409148744, -1470.76713690366, -3026.560309715308, 1152.3665371378108, 3177.0993086218014, 3441.8110182060027, 262.2977211830284, -4407.227564719626, 0.046, -0.08, 0.982, 192.0, 0.0, 0.0, 0.0, 0.0, 0.0, 0.0, 0.0, 0.0, 0.0, 1.700578831115104E9, 0.0, 2023-11-21 10:00:31.115
107.0, -1567.1702107393994, -1478.254971296188, -3033.1317225851685, 1152.947682493649, 3178.261599333477, 3440.9169484277904, 259.9731397596764, -4410.870899065841, 0.046, -0.08, 0.982, 192.0, 0.0, 0.0, 0.0, 0.0, 0.0, 0.0, 0.0, 0.0, 0.0, 1.70057883111911E9, 0.0, 2023-11-21 10:00:31.119
108.0, -1571.5958561415503, -1477.9420468738135, -3038.0938098542465, 1152.590054582364, 3176.1158318657676, 3439.374678060374, 259.6378635928468, -4410.334457198913, 0.046, -0.08, 0.982, 192.0, 0.0, 0.0, 0.0, 0.0, 0.0, 0.0, 0.0, 0.0, 0.0, 1.700578831123131E9, 0.0, 2023-11-21 10:00:31.123
109.0, -1568.8018880846369, -1467.5261339576405, -3029.8013126613278, 1160.1225924638024, 3180.9661604125695, 3443.9120821848014, 264.6446543508356, -4408.032227520016, 0.048, -0.082, 0.982, 192.0, 1.0, 128.0, 253.0, 112.0, 30.0, 176.0, 0.0, 0.0, 0.0, 1.700578831128137E9, 0.0, 2023-11-21 10:00:31.128
110.0, -1570.7911933411592, -1467.48143046873, -3027.4543794935203, 1162.2460081870565, 3180.0497388899016, 3443.867378695891, 263.48236363915964, -4411.094416510394, 0.048, -0.082, 0.982, 192.0, 0.0, 0.0, 0.0, 0.0, 0.0, 0.0, 0.0, 0.0, 0.0, 1.700578831131141E9, 0.0, 2023-11-21 10:00:31.131
111.0, -1572.5793328975838, -1470.76713690366, -3031.276527795378, 1159.1838191966797, 3175.9593696545803, 3441.25222459462, 263.50471538361495, -4410.915602554751, 0.048, -0.082, 0.982, 192.0, 0.0, 0.0, 0.0, 0.0, 0.0, 0.0, 0.0, 0.0, 0.0, 1.700578831135163E9, 0.0, 2023-11-21 10:00:31.135
112.0, -1575.663873632416, -1474.0751950830454, -3037.60207147623, 1149.527865591987, 3168.9185701511587, 3436.7595239591033, 263.7058810837127, -4405.439425163201, 0.048, -0.082, 0.982, 192.0, 0.0, 0.0, 0.0, 0.0, 0.0, 0.0, 0.0, 0.0, 0.0, 1.700578831139154E9, 0.0, 2023-11-21 10:00:31.139
113.0, -1571.6182078860054, -1469.314273514065, -3031.365934773199, 1157.3509761513444, 3177.0322533884355, 3442.5933292619384, 267.68449159675737, -4404.545355384988, 0.048, -0.082, 0.982, 192.0, 0.0, 0.0, 0.0, 0.0, 0.0, 0.0, 0.0, 0.0, 0.0, 1.700578831145169E9, 0.0, 2023-11-21 10:00:31.145
114.0, -1569.897123562947, -1466.542657201607, -3020.435931734554, 1162.558932609431, 3179.8262214453484, 3441.676907739271, 264.890523539844, -4410.803843832475, 0.048, -0.082, 0.982, 192.0, 0.0, 0.0, 0.0, 0.0, 0.0, 0.0, 0.0, 0.0, 0.0, 1.700578831148166E9, 0.0, 2023-11-21 10:00:31.148
115.0, -1560.7776118251816, -1465.5815321900288, -3022.6711061800847, 1159.6085023413304, 3176.361701054776, 3440.8722449388797, 263.79528806153394, -4408.613372875854, 0.048, -0.082, 0.982, 192.0, 0.0, 0.0, 0.0, 0.0, 0.0, 0.0, 0.0, 0.0, 0.0, 1.700578831151173E9, 0.0, 2023-11-21 10:00:31.151
116.0, -1566.11967875, -1472.9576078602802, -3033.399943518632, 1158.4462116296545, 3177.9263231666478, 3444.582634518461, 266.23162820716243, -4409.01570427605, 0.048, -0.082, 0.982, 192.0, 0.0, 0.0, 0.0, 0.0, 0.0, 0.0, 0.0, 0.0, 0.0, 1.700578831156196E9, 0.0, 2023-11-21 10:00:31.156
117.0, -1564.2644839602094, -1473.538753216118, -3038.563196487808, 1155.428726128188, 3177.8369161888263, 3444.4708757961844, 265.65048285132445, -4409.01570427605, 0.048, -0.082, 0.982, 192.0, 0.0, 0.0, 0.0, 0.0, 0.0, 0.0, 0.0, 0.0, 0.0, 1.700578831159183E9, 0.0, 2023-11-21 10:00:31.159
118.0, -1571.9758357972903, -1469.381328747431, -3039.3678592881993, 1154.6017115833417, 3179.8262214453484, 3447.7789339755695, 268.891485797344, -4409.038056020505, 0.048, -0.082, 0.982, 192.0, 0.0, 0.0, 0.0, 0.0, 0.0, 0.0, 0.0, 0.0, 0.0, 1.700578831163229E9, 0.0, 2023-11-21 10:00:31.163
119.0, -1576.0662050326116, -1469.0013490916908, -3038.1385133431572, 1153.75234529404, 3178.5074685224854, 3449.2988525985306, 266.7457183296345, -4411.8767275663295, 0.046, -0.078, 0.984, 192.0, 1.0, 112.0, 253.0, 144.0, 30.0, 192.0, 0.0, 0.0, 0.0, 1.700578831167248E9, 0.0, 2023-11-21 10:00:31.167
120.0, -1569.5171439072067, -1463.0781368110345, -3028.3037457828223, 1157.328624406889, 3179.3791865562425, 3446.482532797162, 267.68449159675737, -4411.452044421679, 0.046, -0.078, 0.984, 192.0, 0.0, 0.0, 0.0, 0.0, 0.0, 0.0, 0.0, 0.0, 0.0, 1.700578831171226E9, 0.0, 2023-11-21 10:00:31.171
121.0, -1562.4986961482402, -1452.6175204059507, -3011.271716507878, 1164.7717553105063, 3182.262561590977, 3446.549588030528, 271.4842881541596, -4408.456910664668, 0.046, -0.078, 0.984, 192.0, 0.0, 0.0, 0.0, 0.0, 0.0, 0.0, 0.0, 0.0, 0.0, 1.700578831175228E9, 0.0, 2023-11-21 10:00:31.175
122.0, -1561.6940333478492, -1460.1724100318445, -3018.759550900406, 1159.0050052410372, 3176.62992198824, 3441.006355405612, 265.8516485514222, -4414.290715967502, 0.046, -0.078, 0.984, 192.0, 0.0, 0.0, 0.0, 0.0, 0.0, 0.0, 0.0, 0.0, 0.0, 1.700578831179236E9, 0.0, 2023-11-21 10:00:31.179
123.0, -1570.2100479853211, -1472.220000293255, -3035.2327865639672, 1153.6405865717634, 3174.8194306873597, 3437.2065588482096, 259.5708083594809, -4419.252803236581, 0.046, -0.078, 0.984, 192.0, 0.0, 0.0, 0.0, 0.0, 0.0, 0.0, 0.0, 0.0, 0.0, 1.700578831184261E9, 0.0, 2023-11-21 10:00:31.184
124.0, -1581.4306237018852, -1479.0372823521236, -3049.314385570811, 1150.690156303663, 3177.7028057220946, 3439.0170501490893, 263.3259014279725, -4420.68331488172, 0.046, -0.078, 0.984, 192.0, 0.0, 0.0, 0.0, 0.0, 0.0, 0.0, 0.0, 0.0, 0.0, 1.700578831187272E9, 0.0, 2023-11-21 10:00:31.187
125.0, -1571.0147107857122, -1473.6058084494841, -3043.9052634126265, 1154.713470305618, 3177.881619677737, 3442.2357013506535, 267.25980845210654, -4414.938916556706, 0.046, -0.078, 0.984, 192.0, 0.0, 0.0, 0.0, 0.0, 0.0, 0.0, 0.0, 0.0, 0.0, 1.700578831191273E9, 0.0, 2023-11-21 10:00:31.191
126.0, -1570.9476555523463, -1471.9517793597913, -3038.496141254442, 1155.2275604280903, 3172.3830905417312, 3438.9499949157234, 265.4493171512267, -4415.765931101552, 0.046, -0.078, 0.984, 192.0, 0.0, 0.0, 0.0, 0.0, 0.0, 0.0, 0.0, 0.0, 0.0, 1.700578831195295E9, 0.0, 2023-11-21 10:00:31.195
127.0, -1566.3208444500976, -1463.4581164667745, -3030.8741963951825, 1159.8543715303388, 3178.3733580557537, 3444.001489162623, 270.36670093139423, -4414.290715967502, 0.046, -0.078, 0.984, 192.0, 0.0, 0.0, 0.0, 0.0, 0.0, 0.0, 0.0, 0.0, 0.0, 1.700578831199301E9, 0.0, 2023-11-21 10:00:31.199
128.0, -1568.1760392398883, -1468.5766659470398, -3036.7080016980176, 1155.2275604280903, 3173.7018434645947, 3440.067582138489, 267.4609741522043, -4416.123559012837, 0.046, -0.078, 0.984, 192.0, 0.0, 0.0, 0.0, 0.0, 0.0, 0.0, 0.0, 0.0, 0.0, 1.700578831203285E9, 0.0, 2023-11-21 10:00:31.203
129.0, -1568.1313357509775, -1471.1024130704895, -3034.4951789969423, 1157.172162195702, 3170.974930641047, 3438.7264774711703, 266.1869247182518, -4414.2236607341365, 0.044, -0.078, 0.982, 192.0, 1.0, 96.0, 253.0, 144.0, 30.0, 176.0, 0.0, 0.0, 0.0, 1.700578831207306E9, 0.0, 2023-11-21 10:00:31.207
130.0, -1574.2333619872763, -1471.6835584263276, -3033.5564057298193, 1160.6813860751852, 3176.7640324549716, 3444.582634518461, 270.6349218648579, -4416.235317735114, 0.044, -0.078, 0.982, 192.0, 0.0, 0.0, 0.0, 0.0, 0.0, 0.0, 0.0, 0.0, 0.0, 1.700578831212321E9, 0.0, 2023-11-21 10:00:31.212
131.0, -1573.696920120349, -1470.3871572479197, -3034.4951789969423, 1158.557970351931, 3178.7309859670386, 3446.0802013969665, 271.08195675396405, -4415.6318206348205, 0.044, -0.078, 0.982, 192.0, 0.0, 0.0, 0.0, 0.0, 0.0, 0.0, 0.0, 0.0, 0.0, 1.700578831215362E9, 0.0, 2023-11-21 10:00:31.215
132.0, -1571.5958561415503, -1468.9789973472355, -3032.7070394405177, 1157.3733278957998, 3178.1498406112005, 3446.482532797162, 268.35504393041657, -4412.457872922168, 0.044, -0.078, 0.982, 192.0, 0.0, 0.0, 0.0, 0.0, 0.0, 0.0, 0.0, 0.0, 0.0, 1.700578831218345E9, 0.0, 2023-11-21 10:00:31.218
133.0, -1567.147858994944, -1466.4308984793304, -3030.382458017166, 1160.0331854859812, 3180.7426429680163, 3448.471838053684, 270.05377650901994, -4404.768872829542, 0.044, -0.078, 0.982, 192.0, 0.0, 0.0, 0.0, 0.0, 0.0, 0.0, 0.0, 0.0, 0.0, 1.700578831223327E9, 0.0, 2023-11-21 10:00:31.223
134.0, -1574.2557137317317, -1462.0723083105456, -3024.369838758688, 1163.207133198635, 3181.077919134846, 3448.740058987148, 273.7641660886009, -4409.127462998326, 0.044, -0.078, 0.982, 192.0, 0.0, 0.0, 0.0, 0.0, 0.0, 0.0, 0.0, 0.0, 0.0, 1.700578831227395E9, 0.0, 2023-11-21 10:00:31.227
135.0, -1569.5618473961172, -1465.8721048679479, -3029.7119056835063, 1157.686252318174, 3176.6075702437843, 3445.901387441324, 271.43958466524896, -4410.11093975436, 0.044, -0.078, 0.982, 192.0, 0.0, 0.0, 0.0, 0.0, 0.0, 0.0, 0.0, 0.0, 0.0, 1.700578831231353E9, 0.0, 2023-11-21 10:00:31.231
136.0, -1567.0808037615782, -1468.3531485024869, -3033.98108887447, 1151.9195022487047, 3172.6736632196503, 3443.710916484704, 269.5620381310032, -4406.311143196957, 0.044, -0.078, 0.982, 192.0, 0.0, 0.0, 0.0, 0.0, 0.0, 0.0, 0.0, 0.0, 0.0, 1.700578831235359E9, 0.0, 2023-11-21 10:00:31.235
137.0, -1566.857286317025, -1469.4260322363416, -3036.4397807645537, 1151.3160051484115, 3174.372395798254, 3443.4873990401506, 269.8526108089222, -4402.645457106288, 0.044, -0.078, 0.982, 192.0, 0.0, 0.0, 0.0, 0.0, 0.0, 0.0, 0.0, 0.0, 0.0, 1.700578831239391E9, 0.0, 2023-11-21 10:00:31.239
138.0, -1568.5560188956285, -1465.6038839344842, -3035.858635408716, 1153.4394208716656, 3176.9875498995248, 3444.0461926515336, 269.04794800853114, -4401.818442561441, 0.044, -0.078, 0.982, 192.0, 0.0, 0.0, 0.0, 0.0, 0.0, 0.0, 0.0, 0.0, 0.0, 1.700578831243411E9, 0.0, 2023-11-21 10:00:31.243
139.0, -1569.6289026294833, -1466.7661746461602, -3036.909167398115, 1153.0147377270148, 3175.9593696545803, 3441.095762383433, 269.6514451088244, -4403.897154795784, 0.032, -0.078, 0.976, 192.0, 1.0, 0.0, 253.0, 144.0, 30.0, 128.0, 0.0, 0.0, 0.0, 1.700578831246379E9, 0.0, 2023-11-21 10:00:31.246
140.0, -1565.315015949609, -1462.2287705217327, -3030.2483475504337, 1156.2110371841238, 3176.6075702437843, 3444.4261723072736, 274.52412540008135, -4399.069177993439, 0.032, -0.078, 0.976, 192.0, 0.0, 0.0, 0.0, 0.0, 0.0, 0.0, 0.0, 0.0, 0.0, 1.700578831250398E9, 0.0, 2023-11-21 10:00:31.250
141.0, -1559.21298971331, -1464.6204071784505, -3032.729391184973, 1152.7018133046406, 3175.0876516208236, 3446.259015352609, 278.65919812431315, -4392.028378490017, 0.032, -0.078, 0.976, 192.0, 0.0, 0.0, 0.0, 0.0, 0.0, 0.0, 0.0, 0.0, 0.0, 1.700578831255394E9, 0.0, 2023-11-21 10:00:31.255
142.0, -1563.079841504078, -1470.8341921370259, -3033.8246266632827, 1149.5725690808974, 3175.6687969766617, 3445.3649455743966, 279.06152952450867, -4390.642570333787, 0.032, -0.078, 0.976, 192.0, 0.0, 0.0, 0.0, 0.0, 0.0, 0.0, 0.0, 0.0, 0.0, 1.700578831259417E9, 0.0, 2023-11-21 10:00:31.259
143.0, -1571.4840974192737, -1469.157811302878, -3032.036487106858, 1150.5336940924758, 3174.908837665181, 3445.7896287190474, 275.4405469227489, -4394.084738979905, 0.032, -0.078, 0.976, 192.0, 0.0, 0.0, 0.0, 0.0, 0.0, 0.0, 0.0, 0.0, 0.0, 1.700578831263462E9, 0.0, 2023-11-21 10:00:31.263
144.0, -1566.3208444500976, -1467.0343955796238, -3037.7361819429616, 1149.013775469515, 3173.7018434645947, 3449.2988525985306, 275.46289866720423, -4392.497765123578, 0.032, -0.078, 0.976, 192.0, 0.0, 0.0, 0.0, 0.0, 0.0, 0.0, 0.0, 0.0, 0.0, 1.700578831266452E9, 0.0, 2023-11-21 10:00:31.266
145.0, -1570.2994549631424, -1467.2132095352663, -3038.2279203209782, 1148.6784993026852, 3174.595913242807, 3450.2376258656536, 274.3676631888942, -4393.2130209461475, 0.032, -0.078, 0.976, 192.0, 0.0, 0.0, 0.0, 0.0, 0.0, 0.0, 0.0, 0.0, 0.0, 1.700578831270423E9, 0.0, 2023-11-21 10:00:31.270
146.0, -1562.9010275484356, -1463.1451920444003, -3033.466998751998, 1152.0536127154367, 3178.7309859670386, 3451.6457857663377, 275.55230564502546, -4389.01089298855, 0.032, -0.078, 0.976, 192.0, 0.0, 0.0, 0.0, 0.0, 0.0, 0.0, 0.0, 0.0, 0.0, 1.700578831274392E9, 0.0, 2023-11-21 10:00:31.274
147.0, -1571.3499869525417, -1461.737032143716, -3024.0345625918585, 1153.9311592496824, 3179.7591662119826, 3450.3940880768405, 275.46289866720423, -4393.615352346344, 0.032, -0.078, 0.976, 192.0, 0.0, 0.0, 0.0, 0.0, 0.0, 0.0, 0.0, 0.0, 0.0, 1.70057883127939E9, 0.0, 2023-11-21 10:00:31.279
148.0, -1573.540457909162, -1462.4075844773752, -3026.247385292934, 1153.0594412159255, 3179.558000511885, 3449.120038642888, 275.46289866720423, -4395.8505267918745, 0.032, -0.078, 0.976, 192.0, 0.0, 0.0, 0.0, 0.0, 0.0, 0.0, 0.0, 0.0, 0.0, 1.700578831283406E9, 0.0, 2023-11-21 10:00:31.283
149.0, -1567.5501903951397, -1466.7438229017048, -3032.8635016517046, 1152.6571098157299, 3183.0225209024575, 3452.0034136776226, 277.5192591570925, -4390.799032544975, 0.034, -0.078, 0.978, 192.0, 1.0, 16.0, 253.0, 144.0, 30.0, 144.0, 0.0, 0.0, 0.0, 1.70057883128741E9, 0.0, 2023-11-21 10:00:31.287
150.0, -1564.6444636159497, -1457.579607675029, -3026.3591440152104, 1155.1158017058137, 3182.620189502262, 3455.8255619794804, 277.36279694590536, -4387.289808665491, 0.034, -0.078, 0.978, 192.0, 0.0, 0.0, 0.0, 0.0, 0.0, 0.0, 0.0, 0.0, 0.0, 1.700578831291442E9, 0.0, 2023-11-21 10:00:31.291
151.0, -1561.5152193922067, -1452.0140233056575, -3026.4485509930314, 1157.2168656846125, 3181.2567330904885, 3456.049079424033, 279.1062330134193, -4384.495840608578, 0.034, -0.078, 0.978, 192.0, 0.0, 0.0, 0.0, 0.0, 0.0, 0.0, 0.0, 0.0, 0.0, 1.700578831294516E9, 0.0, 2023-11-21 10:00:31.294
152.0, -1568.891295062458, -1460.7312036432272, -3027.9908213604476, 1156.9039412622383, 3173.8583056757816, 3449.7905909765473, 273.7641660886009, -4389.167355199737, 0.034, -0.078, 0.978, 192.0, 0.0, 0.0, 0.0, 0.0, 0.0, 0.0, 0.0, 0.0, 0.0, 1.700578831298502E9, 0.0, 2023-11-21 10:00:31.298
153.0, -1568.3548531955307, -1476.2656660396656, -3038.4067342766207, 1153.75234529404, 3173.813602186871, 3449.3435560874414, 274.792346333545, -4390.933143011706, 0.034, -0.078, 0.978, 192.0, 0.0, 0.0, 0.0, 0.0, 0.0, 0.0, 0.0, 0.0, 0.0, 1.700578831302472E9, 0.0, 2023-11-21 10:00:31.302
154.0, -1568.4666119178073, -1476.3774247619422, -3039.144341843646, 1149.7290312920848, 3170.5725992408516, 3445.320242085486, 275.17232598928524, -4390.843736033886, 0.034, -0.078, 0.978, 192.0, 0.0, 0.0, 0.0, 0.0, 0.0, 0.0, 0.0, 0.0, 0.0, 1.700578831306513E9, 0.0, 2023-11-21 10:00:31.306
155.0, -1566.5220101501955, -1472.9352561158248, -3039.569024988297, 1150.6678045592075, 3168.203314328589, 3442.973308917679, 272.534820143559, -4391.000198245072, 0.034, -0.078, 0.978, 192.0, 0.0, 0.0, 0.0, 0.0, 0.0, 0.0, 0.0, 0.0, 0.0, 1.700578831311478E9, 0.0, 2023-11-21 10:00:31.311
156.0, -1553.5356466216622, -1467.995520591202, -3039.278452310378, 1154.1099732053249, 3172.360738797276, 3449.567073531994, 276.69224461224616, -4381.813631273942, 0.034, -0.078, 0.978, 192.0, 0.0, 0.0, 0.0, 0.0, 0.0, 0.0, 0.0, 0.0, 0.0, 1.700578831315468E9, 0.0, 2023-11-21 10:00:31.315
157.0, -1555.8378763005587, -1465.223904278744, -3033.042315607347, 1156.6133685843192, 3178.038081888924, 3453.433925322762, 282.16842200379637, -4375.979825971106, 0.034, -0.078, 0.978, 192.0, 0.0, 0.0, 0.0, 0.0, 0.0, 0.0, 0.0, 0.0, 0.0, 1.700578831319534E9, 0.0, 2023-11-21 10:00:31.319
158.0, -1558.1177542350001, -1452.2375407502104, -3020.3241730122772, 1161.620159342308, 3181.5696575128627, 3452.763372989103, 285.0070935496204, -4378.2373521610925, 0.034, -0.078, 0.978, 192.0, 0.0, 0.0, 0.0, 0.0, 0.0, 0.0, 0.0, 0.0, 0.0, 1.700578831322563E9, 0.0, 2023-11-21 10:00:31.322
159.0, -1553.5803501105727, -1447.767191859149, -3021.2182427904895, 1161.240179686568, 3182.2849133354325, 3451.5563787885167, 287.309323228517, -4377.209171916148, 0.034, -0.08, 0.976, 192.0, 1.0, 16.0, 253.0, 128.0, 30.0, 128.0, 0.0, 0.0, 0.0, 1.700578831326536E9, 0.0, 2023-11-21 10:00:31.326
160.0, -1565.7173473498044, -1472.3541107599867, -3043.2794145678777, 1147.9855952245707, 3175.4899830210193, 3443.733268229159, 279.5756196469807, -4381.210134173648, 0.034, -0.08, 0.976, 192.0, 0.0, 0.0, 0.0, 0.0, 0.0, 0.0, 0.0, 0.0, 0.0, 1.700578831330563E9, 0.0, 2023-11-21 10:00:31.330
161.0, -1566.343196194553, -1468.5543142025847, -3036.573891231286, 1151.6289295707859, 3179.91562842317, 3449.768239232092, 284.6941691272461, -4373.029395703005, 0.034, -0.08, 0.976, 192.0, 0.0, 0.0, 0.0, 0.0, 0.0, 0.0, 0.0, 0.0, 0.0, 1.700578831334596E9, 0.0, 2023-11-21 10:00:31.334
162.0, -1566.7902310836591, -1469.1801630473333, -3036.2609668089112, 1147.7620777800178, 3177.568695255363, 3451.2658061105976, 283.889506326855, -4375.331625381902, 0.034, -0.08, 0.976, 192.0, 0.0, 0.0, 0.0, 0.0, 0.0, 0.0, 0.0, 0.0, 0.0, 1.700578831339532E9, 0.0, 2023-11-21 10:00:31.339
163.0, -1558.83301005757, -1471.6835584263276, -3040.753667444428, 1146.8680080018055, 3174.8641341762705, 3450.572902032483, 282.0119597926092, -4380.763099284542, 0.034, -0.08, 0.976, 192.0, 0.0, 0.0, 0.0, 0.0, 0.0, 0.0, 0.0, 0.0, 0.0, 1.700578831343584E9, 0.0, 2023-11-21 10:00:31.343
164.0, -1558.408326912919, -1472.1305933154338, -3034.1822545745677, 1153.2159034271126, 3178.529820266941, 3455.669099768293, 285.18590750526283, -4379.0643667059385, 0.034, -0.08, 0.976, 192.0, 0.0, 0.0, 0.0, 0.0, 0.0, 0.0, 0.0, 0.0, 0.0, 1.700578831347651E9, 0.0, 2023-11-21 10:00:31.347
165.0, -1564.1974287268436, -1468.8672386249589, -3029.6224987056853, 1152.7688685380065, 3176.316997565865, 3454.1044776564217, 282.5260499150813, -4384.4064336307565, 0.034, -0.08, 0.976, 192.0, 0.0, 0.0, 0.0, 0.0, 0.0, 0.0, 0.0, 0.0, 0.0, 1.700578831350646E9, 0.0, 2023-11-21 10:00:31.350
166.0, -1569.4500886738408, -1470.7447851592046, -3042.206530834023, 1143.3811358667774, 3174.2159335870665, 3449.522370043084, 280.7155586142014, -4386.82042203193, 0.034, -0.08, 0.976, 192.0, 0.0, 0.0, 0.0, 0.0, 0.0, 0.0, 0.0, 0.0, 0.0, 1.700578831354642E9, 0.0, 2023-11-21 10:00:31.354
167.0, -1558.050699001634, -1461.4017559768863, -3032.058838851314, 1152.5006476045428, 3186.777613970949, 3456.093782912944, 285.7223493721902, -4377.410337616246, 0.034, -0.08, 0.976, 192.0, 0.0, 0.0, 0.0, 0.0, 0.0, 0.0, 0.0, 0.0, 0.0, 1.700578831358637E9, 0.0, 2023-11-21 10:00:31.358
168.0, -1561.2022949698323, -1462.452287966286, -3027.5884899602524, 1158.2897494184672, 3189.951561683603, 3456.2278933796756, 283.04014003755333, -4381.76892778503, 0.034, -0.08, 0.976, 192.0, 0.0, 0.0, 0.0, 0.0, 0.0, 0.0, 0.0, 0.0, 0.0, 1.700578831362656E9, 0.0, 2023-11-21 10:00:31.362
169.0, -1563.571579882095, -1464.1286688004338, -3031.209472562012, 1151.6289295707859, 3182.910762180181, 3449.3882595763516, 278.7709568465897, -4383.221791174626, 0.042, -0.09, 0.976, 192.0, 1.0, 80.0, 253.0, 48.0, 30.0, 128.0, 0.0, 0.0, 0.0, 1.700578831366671E9, 0.0, 2023-11-21 10:00:31.366
170.0, -1559.8164868136034, -1465.5815321900288, -3031.5447487288416, 1149.1925894251574, 3179.289779578421, 3446.7731054750807, 277.407500434816, -4382.573590585422, 0.042, -0.09, 0.976, 192.0, 0.0, 0.0, 0.0, 0.0, 0.0, 0.0, 0.0, 0.0, 0.0, 1.700578831371638E9, 0.0, 2023-11-21 10:00:31.371
171.0, -1555.279082689176, -1466.2073810347774, -3038.4290860210763, 1146.3762696237886, 3177.568695255363, 3447.1083816419105, 277.34044520145005, -4381.858334762852, 0.042, -0.09, 0.976, 192.0, 0.0, 0.0, 0.0, 0.0, 0.0, 0.0, 0.0, 0.0, 0.0, 1.700578831375644E9, 0.0, 2023-11-21 10:00:31.375
172.0, -1569.8747718184916, -1460.3288722430316, -3027.767303915895, 1152.299481904445, 3179.4462417896084, 3448.15891363131, 278.0780527684752, -4391.804861045463, 0.042, -0.09, 0.976, 192.0, 0.0, 0.0, 0.0, 0.0, 0.0, 0.0, 0.0, 0.0, 0.0, 1.700578831378663E9, 0.0, 2023-11-21 10:00:31.378
173.0, -1567.21491422831, -1455.5679506740512, -3022.4252369910764, 1152.746516793551, 3174.3500440537982, 3446.281367097064, 273.89827655533276, -4399.739730327097, 0.042, -0.09, 0.976, 192.0, 0.0, 0.0, 0.0, 0.0, 0.0, 0.0, 0.0, 0.0, 0.0, 1.700578831382672E9, 0.0, 2023-11-21 10:00:31.382
174.0, -1566.11967875, -1459.1665815313556, -3028.3484492717325, 1153.975862738593, 3176.1158318657676, 3446.616643263894, 275.19467773374055, -4400.857317549863, 0.042, -0.09, 0.976, 192.0, 0.0, 0.0, 0.0, 0.0, 0.0, 0.0, 0.0, 0.0, 0.0, 1.700578831386679E9, 0.0, 2023-11-21 10:00:31.386
175.0, -1561.4481641588409, -1467.0790990685343, -3035.970394130992, 1152.3665371378108, 3178.909799922681, 3450.416439821296, 277.65336962382435, -4395.5376023695, 0.042, -0.09, 0.976, 192.0, 0.0, 0.0, 0.0, 0.0, 0.0, 0.0, 0.0, 0.0, 0.0, 1.700578831390696E9, 0.0, 2023-11-21 10:00:31.390
176.0, -1562.9680827818017, -1468.1966862912998, -3038.831417421272, 1147.7620777800178, 3177.7251574665497, 3451.869303210891, 276.8040033345227, -4394.218849446636, 0.042, -0.09, 0.976, 192.0, 0.0, 0.0, 0.0, 0.0, 0.0, 0.0, 0.0, 0.0, 0.0, 1.700578831394698E9, 0.0, 2023-11-21 10:00:31.394
177.0, -1562.5433996371507, -1468.151982802389, -3038.6078999767187, 1146.9350632351714, 3179.4685935340635, 3452.673966011282, 276.58048588996957, -4393.5035936240665, 0.042, -0.09, 0.976, 192.0, 0.0, 0.0, 0.0, 0.0, 0.0, 0.0, 0.0, 0.0, 0.0, 1.700578831399718E9, 0.0, 2023-11-21 10:00:31.399
178.0, -1559.056527502123, -1470.118936314456, -3035.7468766864395, 1151.3383568928668, 3181.2567330904885, 3455.1773613902765, 279.64267488034665, -4390.419052889234, 0.042, -0.09, 0.976, 192.0, 0.0, 0.0, 0.0, 0.0, 0.0, 0.0, 0.0, 0.0, 0.0, 1.700578831402715E9, 0.0, 2023-11-21 10:00:31.402
179.0, -1557.7824780681703, -1464.9109798563695, -3029.153112072124, 1154.5346563499756, 3183.7377767250273, 3456.339652101952, 281.16259350330756, -4388.541506354989, 0.046, -0.092, 0.976, 192.0, 1.0, 112.0, 253.0, 32.0, 30.0, 128.0, 0.0, 0.0, 0.0, 1.700578831406714E9, 0.0, 2023-11-21 10:00:31.406
180.0, -1560.6211496139945, -1467.995520591202, -3033.6458127076403, 1154.914636005716, 3183.4472040471082, 3453.6350910228603, 276.66989286779085, -4389.01089298855, 0.046, -0.092, 0.976, 192.0, 0.0, 0.0, 0.0, 0.0, 0.0, 0.0, 0.0, 0.0, 0.0, 1.700578831410727E9, 0.0, 2023-11-21 10:00:31.410
181.0, -1559.0788792465783, -1466.833229879526, -3035.3892487751546, 1149.5949208253528, 3179.1109656227786, 3449.812942721003, 273.87592481087745, -4390.553163355967, 0.046, -0.092, 0.976, 192.0, 0.0, 0.0, 0.0, 0.0, 0.0, 0.0, 0.0, 0.0, 0.0, 1.700578831414739E9, 0.0, 2023-11-21 10:00:31.414
182.0, -1556.5978356120393, -1461.3794042324312, -3022.6711061800847, 1150.7572115370288, 3178.328654566843, 3449.164742131799, 273.58535213295846, -4388.407395888257, 0.046, -0.092, 0.976, 192.0, 0.0, 0.0, 0.0, 0.0, 0.0, 0.0, 0.0, 0.0, 0.0, 1.700578831418777E9, 0.0, 2023-11-21 10:00:31.418
183.0, -1565.1138502495112, -1456.1043925409786, -3017.038466577347, 1153.5288278494868, 3181.793174957416, 3451.3105095995084, 276.8040033345227, -4388.943837755184, 0.046, -0.092, 0.976, 192.0, 0.0, 0.0, 0.0, 0.0, 0.0, 0.0, 0.0, 0.0, 0.0, 1.700578831422755E9, 0.0, 2023-11-21 10:00:31.422
184.0, -1567.0137485282123, -1466.5650089460623, -3036.5068359979196, 1149.7960865254506, 3181.5696575128627, 3449.187093876254, 277.29574171253944, -4391.760157556553, 0.046, -0.092, 0.976, 192.0, 0.0, 0.0, 0.0, 0.0, 0.0, 0.0, 0.0, 0.0, 0.0, 1.700578831427767E9, 0.0, 2023-11-21 10:00:31.427
185.0, -1560.8670188030028, -1466.9673403462577, -3038.473789509987, 1150.7572115370288, 3182.0837476353345, 3448.3600793314076, 279.97795104717625, -4388.4520993771675, 0.046, -0.092, 0.976, 192.0, 0.0, 0.0, 0.0, 0.0, 0.0, 0.0, 0.0, 0.0, 0.0, 1.700578831430781E9, 0.0, 2023-11-21 10:00:31.430
186.0, -1561.8728473034917, -1462.3405292440093, -3030.181292317068, 1153.3723656382997, 3180.5414772679187, 3448.315375842497, 280.60379989192484, -4392.877744779318, 0.046, -0.092, 0.976, 192.0, 0.0, 0.0, 0.0, 0.0, 0.0, 0.0, 0.0, 0.0, 0.0, 1.700578831434789E9, 0.0, 2023-11-21 10:00:31.434
187.0, -1568.5336671511732, -1469.0013490916908, -3034.405772019121, 1148.5667405804088, 3176.6969772216057, 3445.923739185779, 277.1839829902629, -4395.783471558509, 0.046, -0.092, 0.976, 192.0, 0.0, 0.0, 0.0, 0.0, 0.0, 0.0, 0.0, 0.0, 0.0, 1.700578831438791E9, 0.0, 2023-11-21 10:00:31.438
188.0, -1572.4228706863967, -1470.8341921370259, -3036.685649953562, 1146.9350632351714, 3173.590084742318, 3444.3367653294526, 273.22772422167355, -4394.554125613467, 0.046, -0.092, 0.976, 192.0, 0.0, 0.0, 0.0, 0.0, 0.0, 0.0, 0.0, 0.0, 0.0, 1.700578831442799E9, 0.0, 2023-11-21 10:00:31.442
189.0, -1566.4326031723742, -1468.0402240801125, -3030.784789417361, 1151.8747987597942, 3177.9933784000136, 3446.5942915194382, 275.50760215611484, -4389.972018000129, 0.044, -0.094, 0.976, 192.0, 1.0, 96.0, 253.0, 16.0, 30.0, 128.0, 0.0, 0.0, 0.0, 1.700578831446812E9, 0.0, 2023-11-21 10:00:31.446
190.0, -1559.5259141356844, -1458.6524914088836, -3019.02777183387, 1158.7144325631182, 3180.787346456927, 3448.181265375765, 276.71459635670146, -4389.927314511217, 0.044, -0.094, 0.976, 192.0, 0.0, 0.0, 0.0, 0.0, 0.0, 0.0, 0.0, 0.0, 0.0, 1.70057883145083E9, 0.0, 2023-11-21 10:00:31.450
191.0, -1561.1352397364665, -1452.3716512169424, -3012.88104210866, 1160.4802203750874, 3182.262561590977, 3448.9859281761564, 276.6475411233355, -4392.475413379123, 0.044, -0.094, 0.976, 192.0, 0.0, 0.0, 0.0, 0.0, 0.0, 0.0, 0.0, 0.0, 0.0, 1.700578831455832E9, 0.0, 2023-11-21 10:00:31.455
192.0, -1554.988510011257, -1449.2424069931994, -3009.0365420623475, 1162.6036360983417, 3184.363625569776, 3450.1705706322878, 278.59214289094723, -4385.546372597977, 0.044, -0.094, 0.976, 192.0, 0.0, 0.0, 0.0, 0.0, 0.0, 0.0, 0.0, 0.0, 0.0, 1.700578831458824E9, 0.0, 2023-11-21 10:00:31.458
193.0, -1541.577463338073, -1461.7817356326266, -3031.276527795378, 1152.6124063268194, 3181.6590644906837, 3451.3999165773293, 280.5367446585589, -4378.974959728117, 0.044, -0.094, 0.976, 192.0, 0.0, 0.0, 0.0, 0.0, 0.0, 0.0, 0.0, 0.0, 0.0, 1.700578831461859E9, 0.0, 2023-11-21 10:00:31.461
194.0, -1563.9515595378352, -1473.7399189162159, -3038.920824399093, 1148.1644091802132, 3179.9603319120806, 3452.428096822274, 282.6154568929025, -4387.736843554598, 0.044, -0.094, 0.976, 192.0, 0.0, 0.0, 0.0, 0.0, 0.0, 0.0, 0.0, 0.0, 0.0, 1.700578831466855E9, 0.0, 2023-11-21 10:00:31.466
195.0, -1568.5783706400837, -1467.704947913283, -3028.1919870605457, 1152.232426671079, 3182.530782524441, 3453.2104078782095, 282.8836778263662, -4392.810689545952, 0.044, -0.094, 0.976, 192.0, 0.0, 0.0, 0.0, 0.0, 0.0, 0.0, 0.0, 0.0, 0.0, 1.700578831470853E9, 0.0, 2023-11-21 10:00:31.470
196.0, -1557.6260158569833, -1460.9547210877802, -3034.942213886048, 1149.4161068697103, 3185.101233136801, 3455.8702654683907, 285.7223493721902, -4385.76989004253, 0.044, -0.094, 0.976, 192.0, 0.0, 0.0, 0.0, 0.0, 0.0, 0.0, 0.0, 0.0, 0.0, 1.700578831474857E9, 0.0, 2023-11-21 10:00:31.474
197.0, -1566.2090857278213, -1472.9129043713695, -3049.4931995264533, 1140.1177811763027, 3175.646445232206, 3446.549588030528, 275.90993355631036, -4393.235372690603, 0.044, -0.094, 0.976, 192.0, 0.0, 0.0, 0.0, 0.0, 0.0, 0.0, 0.0, 0.0, 0.0, 1.700578831478871E9, 0.0, 2023-11-21 10:00:31.478
198.0, -1568.3548531955307, -1470.543619459107, -3034.36106853021, 1150.3995836257438, 3182.128451124245, 3448.382431075863, 273.54064864404785, -4404.210079218159, 0.044, -0.094, 0.976, 192.0, 0.0, 0.0, 0.0, 0.0, 0.0, 0.0, 0.0, 0.0, 0.0, 1.700578831483889E9, 0.0, 2023-11-21 10:00:31.483
199.0, -1561.6940333478492, -1459.837133865015, -3029.041353349847, 1146.9574149796267, 3179.7144627230723, 3447.1754368752763, 273.4288899217713, -4404.545355384988, 0.04, -0.09, 0.98, 192.0, 1.0, 64.0, 253.0, 48.0, 30.0, 160.0, 0.0, 0.0, 0.0, 1.700578831486889E9, 0.0, 2023-11-21 10:00:31.486
200.0, -1557.4919053902515, -1466.8779333684365, -3040.530149999875, 1143.2470254000457, 3177.7698609554604, 3449.2988525985306, 276.1110992564081, -4395.291733180491, 0.04, -0.09, 0.98, 192.0, 0.0, 0.0, 0.0, 0.0, 0.0, 0.0, 0.0, 0.0, 0.0, 1.70057883148991E9, 0.0, 2023-11-21 10:00:31.489
201.0, -1552.4851146322626, -1468.0849275690232, -3039.9266528995818, 1144.8787027452831, 3180.0944423788123, 3450.4611433102064, 277.1392795013523, -4391.111956967349, 0.04, -0.09, 0.98, 192.0, 0.0, 0.0, 0.0, 0.0, 0.0, 0.0, 0.0, 0.0, 0.0, 1.700578831494904E9, 0.0, 2023-11-21 10:00:31.494
202.0, -1555.055565244623, -1456.3055582410764, -3025.0627428368025, 1152.6571098157299, 3184.7659569699717, 3449.9470531877346, 277.4298521792713, -4397.571611114933, 0.04, -0.09, 0.98, 192.0, 0.0, 0.0, 0.0, 0.0, 0.0, 0.0, 0.0, 0.0, 0.0, 1.700578831498925E9, 0.0, 2023-11-21 10:00:31.498
203.0, -1553.2450739437431, -1452.8410378505037, -3028.0578765938135, 1153.4841243605763, 3187.783442471438, 3451.511675299606, 281.76609060360084, -4393.101262223871, 0.04, -0.09, 0.98, 192.0, 0.0, 0.0, 0.0, 0.0, 0.0, 0.0, 0.0, 0.0, 0.0, 1.700578831502865E9, 0.0, 2023-11-21 10:00:31.502
204.0, -1561.9846060257682, -1466.0509188235903, -3036.216263320001, 1147.0244702129926, 3183.134279624734, 3448.87416945388, 280.4026341918271, -4396.565782614444, 0.04, -0.09, 0.98, 192.0, 0.0, 0.0, 0.0, 0.0, 0.0, 0.0, 0.0, 0.0, 0.0, 1.700578831506951E9, 0.0, 2023-11-21 10:00:31.506
205.0, -1560.5317426361732, -1465.2909595121098, -3032.058838851314, 1146.7115457906182, 3179.222724345055, 3447.555416531017, 277.4298521792713, -4395.939933769695, 0.04, -0.09, 0.98, 192.0, 0.0, 0.0, 0.0, 0.0, 0.0, 0.0, 0.0, 0.0, 0.0, 1.700578831511942E9, 0.0, 2023-11-21 10:00:31.511
206.0, -1560.1294112359776, -1468.1072793134786, -3043.41352503461, 1144.4093161117216, 3177.1887155996224, 3446.571939774983, 277.1392795013523, -4397.571611114933, 0.04, -0.09, 0.98, 192.0, 0.0, 0.0, 0.0, 0.0, 0.0, 0.0, 0.0, 0.0, 0.0, 1.700578831514942E9, 0.0, 2023-11-21 10:00:31.514
207.0, -1555.569655367095, -1461.6923286548054, -3042.720620956495, 1146.264510901512, 3178.842744689315, 3448.740058987148, 280.38028244737177, -4395.671712836232, 0.04, -0.09, 0.98, 192.0, 0.0, 0.0, 0.0, 0.0, 0.0, 0.0, 0.0, 0.0, 0.0, 1.700578831517979E9, 0.0, 2023-11-21 10:00:31.517
208.0, -1556.083745489567, -1461.6029216769841, -3038.8090656768163, 1146.6668423017077, 3180.9661604125695, 3444.582634518461, 279.9108958138103, -4393.145965712782, 0.04, -0.09, 0.98, 192.0, 0.0, 0.0, 0.0, 0.0, 0.0, 0.0, 0.0, 0.0, 0.0, 1.700578831522946E9, 0.0, 2023-11-21 10:00:31.522
209.0, -1562.8563240595252, -1458.7642501311602, -3025.5768329592747, 1154.1546766942354, 3184.8553639477927, 3442.5933292619384, 278.9050673133215, -4397.079872736916, 0.042, -0.088, 0.972, 192.0, 1.0, 80.0, 253.0, 64.0, 30.0, 96.0, 0.0, 0.0, 0.0, 1.700578831526966E9, 0.0, 2023-11-21 10:00:31.526
210.0, -1558.6765478463826, -1455.2326745072216, -3019.9665451009923, 1156.6357203287746, 3185.8611924482816, 3444.8285037074693, 279.4638609247042, -4396.454023892167, 0.042, -0.088, 0.972, 192.0, 0.0, 0.0, 0.0, 0.0, 0.0, 0.0, 0.0, 0.0, 0.0, 1.700578831530985E9, 0.0, 2023-11-21 10:00:31.530
211.0, -1563.7503938377374, -1468.151982802389, -3032.9082051406153, 1146.8009527684394, 3179.1109656227786, 3442.034535650556, 276.66989286779085, -4401.639628605799, 0.042, -0.088, 0.972, 192.0, 0.0, 0.0, 0.0, 0.0, 0.0, 0.0, 0.0, 0.0, 0.0, 1.700578831534988E9, 0.0, 2023-11-21 10:00:31.534
212.0, -1551.7251553207823, -1459.032471064624, -3031.1647690731015, 1148.7902580249618, 3182.2849133354325, 3450.438791565751, 282.9507330597321, -4396.006989003061, 0.042, -0.088, 0.972, 192.0, 0.0, 0.0, 0.0, 0.0, 0.0, 0.0, 0.0, 0.0, 0.0, 1.70057883153799E9, 0.0, 2023-11-21 10:00:31.537
213.0, -1546.5619023516062, -1457.512552441663, -3028.750780671928, 1149.1255341917913, 3183.6930732361166, 3454.4621055677067, 286.4599569392153, -4389.077948221916, 0.042, -0.088, 0.972, 192.0, 0.0, 0.0, 0.0, 0.0, 0.0, 0.0, 0.0, 0.0, 0.0, 1.700578831542013E9, 0.0, 2023-11-21 10:00:31.542
214.0, -1559.5259141356844, -1461.6923286548054, -3024.9286323700708, 1151.3383568928668, 3186.330579081843, 3455.2667683680975, 283.889506326855, -4391.1566604562595, 0.042, -0.088, 0.972, 192.0, 0.0, 0.0, 0.0, 0.0, 0.0, 0.0, 0.0, 0.0, 0.0, 1.700578831546E9, 0.0, 2023-11-21 10:00:31.546
215.0, -1558.2965681906426, -1452.349299472487, -3010.534108940853, 1157.9544732516376, 3189.8398029613263, 3457.3678323468966, 285.52118367209243, -4391.782509301008, 0.042, -0.088, 0.972, 192.0, 0.0, 0.0, 0.0, 0.0, 0.0, 0.0, 0.0, 0.0, 0.0, 1.700578831550015E9, 0.0, 2023-11-21 10:00:31.550
216.0, -1563.8845043044691, -1451.5893401610065, -3012.948097342026, 1154.1099732053249, 3186.7329104820387, 3452.6516142668265, 282.7048638707237, -4395.269381436036, 0.042, -0.088, 0.972, 192.0, 0.0, 0.0, 0.0, 0.0, 0.0, 0.0, 0.0, 0.0, 0.0, 1.700578831555027E9, 0.0, 2023-11-21 10:00:31.555
217.0, -1559.9729490247905, -1459.47950595373, -3030.2259958059785, 1147.5832638243753, 3187.336407582332, 3453.8586084674134, 285.0741487829863, -4389.5696865999325, 0.042, -0.088, 0.972, 192.0, 0.0, 0.0, 0.0, 0.0, 0.0, 0.0, 0.0, 0.0, 0.0, 1.700578831559029E9, 0.0, 2023-11-21 10:00:31.559
218.0, -1564.0409665156565, -1472.1305933154338, -3045.402830291132, 1137.167350908202, 3174.752375453994, 3445.923739185779, 279.083881268964, -4396.588134358899, 0.042, -0.088, 0.972, 192.0, 0.0, 0.0, 0.0, 0.0, 0.0, 0.0, 0.0, 0.0, 0.0, 1.700578831563043E9, 0.0, 2023-11-21 10:00:31.563
219.0, -1555.6814140893716, -1461.312348999065, -3036.909167398115, 1138.5084555755207, 3175.2441138320105, 3449.544721787539, 282.8836778263662, -4392.721282568131, 0.042, -0.092, 0.978, 192.0, 1.0, 80.0, 253.0, 32.0, 30.0, 144.0, 0.0, 0.0, 0.0, 1.700578831566049E9, 0.0, 2023-11-21 10:00:31.566
220.0, -1554.4967716332403, -1457.8478286084926, -3034.8975103971375, 1139.6260427982859, 3176.0264248879466, 3452.741021244648, 284.2247824936846, -4388.921486010729, 0.042, -0.092, 0.978, 192.0, 0.0, 0.0, 0.0, 0.0, 0.0, 0.0, 0.0, 0.0, 0.0, 1.700578831570045E9, 0.0, 2023-11-21 10:00:31.570
221.0, -1562.766917081704, -1460.865314109959, -3032.729391184973, 1143.3587841223223, 3174.372395798254, 3451.355213088419, 278.94977080223214, -4392.587172101399, 0.042, -0.092, 0.978, 192.0, 0.0, 0.0, 0.0, 0.0, 0.0, 0.0, 0.0, 0.0, 0.0, 1.700578831574051E9, 0.0, 2023-11-21 10:00:31.574
222.0, -1568.0642805176117, -1457.378441974931, -3033.8246266632827, 1144.65518530073, 3175.355872554287, 3454.0150706786003, 279.06152952450867, -4398.510384382055, 0.042, -0.092, 0.978, 192.0, 0.0, 0.0, 0.0, 0.0, 0.0, 0.0, 0.0, 0.0, 0.0, 1.700578831578066E9, 0.0, 2023-11-21 10:00:31.578
223.0, -1554.988510011257, -1456.3502617299869, -3030.471864994987, 1145.102220189836, 3177.0546051328906, 3453.769201489592, 280.26852372509524, -4393.548297112978, 0.042, -0.092, 0.978, 192.0, 0.0, 0.0, 0.0, 0.0, 0.0, 0.0, 0.0, 0.0, 0.0, 1.700578831583098E9, 0.0, 2023-11-21 10:00:31.583
224.0, -1557.7824780681703, -1462.7428606442047, -3026.2920887818445, 1144.364612622811, 3178.328654566843, 3453.3668700893963, 281.050834781031, -4391.558991856456, 0.042, -0.092, 0.978, 192.0, 0.0, 0.0, 0.0, 0.0, 0.0, 0.0, 0.0, 0.0, 0.0, 1.700578831587056E9, 0.0, 2023-11-21 10:00:31.587
225.0, -1558.5647891241063, -1456.797296619093, -3032.349411529233, 1145.7280690345847, 3182.396672057709, 3457.1666666467986, 283.48717492665946, -4390.553163355967, 0.042, -0.092, 0.978, 192.0, 0.0, 0.0, 0.0, 0.0, 0.0, 0.0, 0.0, 0.0, 0.0, 1.700578831591091E9, 0.0, 2023-11-21 10:00:31.591
226.0, -1558.8106583131146, -1459.6359681649171, -3038.4290860210763, 1146.5103800905206, 3180.6755877346504, 3456.1384864018546, 283.2413057376511, -4386.9321807542065, 0.042, -0.092, 0.978, 192.0, 0.0, 0.0, 0.0, 0.0, 0.0, 0.0, 0.0, 0.0, 0.0, 1.700578831594087E9, 0.0, 2023-11-21 10:00:31.594
227.0, -1561.5152193922067, -1462.0052530771798, -3037.020926120392, 1146.756249279529, 3176.6075702437843, 3454.9538439457233, 281.050834781031, -4387.0439394764835, 0.042, -0.092, 0.978, 192.0, 0.0, 0.0, 0.0, 0.0, 0.0, 0.0, 0.0, 0.0, 0.0, 1.700578831598094E9, 0.0, 2023-11-21 10:00:31.598
228.0, -1567.5725421395948, -1465.9838635902242, -3043.1900075900567, 1146.9350632351714, 3180.139145867723, 3454.8197334789916, 281.49786967013716, -4385.389910386791, 0.042, -0.092, 0.978, 192.0, 0.0, 0.0, 0.0, 0.0, 0.0, 0.0, 0.0, 0.0, 0.0, 1.700578831602125E9, 0.0, 2023-11-21 10:00:31.602
229.0, -1567.4831351617736, -1472.1082415709784, -3047.5038942699307, 1139.6036910538305, 3174.5288580094407, 3447.510713042106, 278.8603638244109, -4388.183878443704, 0.042, -0.092, 0.978, 192.0, 0.0, 0.0, 0.0, 0.0, 0.0, 0.0, 0.0, 0.0, 0.0, 1.700578831606114E9, 0.0, 2023-11-21 10:00:31.606
230.0, -1563.1021932485335, -1465.3580147454757, -3042.072420367291, 1138.910786975716, 3172.4724975195527, 3445.990794419145, 278.1227562573858, -4388.1615266992485, 0.04, -0.09, 0.976, 192.0, 1.0, 64.0, 253.0, 48.0, 30.0, 128.0, 0.0, 0.0, 0.0, 1.700578831611138E9, 0.0, 2023-11-21 10:00:31.611
231.0, -1552.7533355657263, -1452.1704855168446, -3025.7779986593723, 1148.4102783692215, 3177.6357504887287, 3452.450448566729, 281.9449045592433, -4379.5337533394995, 0.04, -0.09, 0.976, 192.0, 0.0, 0.0, 0.0, 0.0, 0.0, 0.0, 0.0, 0.0, 0.0, 1.70057883161514E9, 0.0, 2023-11-21 10:00:31.615
232.0, -1554.474419888785, -1454.6291774069284, -3031.2318243064674, 1145.8398277568613, 3176.585218499329, 3450.6176055213937, 276.4463754232377, -4383.020625474528, 0.04, -0.09, 0.976, 192.0, 0.0, 0.0, 0.0, 0.0, 0.0, 0.0, 0.0, 0.0, 0.0, 1.700578831619158E9, 0.0, 2023-11-21 10:00:31.619
233.0, -1558.4977338907402, -1458.1607530308668, -3033.2881847963554, 1147.5162085910092, 3183.4472040471082, 3453.679794511771, 276.8487068234333, -4380.070195206427, 0.04, -0.09, 0.976, 192.0, 0.0, 0.0, 0.0, 0.0, 0.0, 0.0, 0.0, 0.0, 0.0, 1.700578831622191E9, 0.0, 2023-11-21 10:00:31.622
234.0, -1557.8495333015364, -1450.3152907270542, -3020.7488561569285, 1152.6124063268194, 3186.040006403924, 3456.093782912944, 282.2801807260729, -4379.846677761874, 0.04, -0.09, 0.976, 192.0, 0.0, 0.0, 0.0, 0.0, 0.0, 0.0, 0.0, 0.0, 0.0, 1.700578831626179E9, 0.0, 2023-11-21 10:00:31.626
235.0, -1566.2761409611871, -1454.6515291513836, -3025.3980190036323, 1151.7406882930622, 3178.395709800209, 3450.058811910011, 278.63684637985784, -4387.356863898857, 0.04, -0.09, 0.976, 192.0, 0.0, 0.0, 0.0, 0.0, 0.0, 0.0, 0.0, 0.0, 0.0, 1.700578831630185E9, 0.0, 2023-11-21 10:00:31.630
236.0, -1564.7562223382263, -1475.8409828950148, -3055.304653084833, 1135.17804565168, 3169.209142829078, 3443.353288573419, 276.55813414551426, -4389.502631366567, 0.04, -0.09, 0.976, 192.0, 0.0, 0.0, 0.0, 0.0, 0.0, 0.0, 0.0, 0.0, 0.0, 1.700578831634187E9, 0.0, 2023-11-21 10:00:31.634
237.0, -1559.6153211135056, -1475.7292241727382, -3054.0976588842464, 1133.5687200508976, 3171.690186463617, 3445.0967246409327, 280.04500628054217, -4385.568724342433, 0.04, -0.09, 0.976, 192.0, 0.0, 0.0, 0.0, 0.0, 0.0, 0.0, 0.0, 0.0, 0.0, 1.700578831638202E9, 0.0, 2023-11-21 10:00:31.638
238.0, -1556.5531321231285, -1465.1121455564673, -3041.044240122347, 1142.7999905109396, 3178.7309859670386, 3451.1763991327766, 283.2189539931958, -4383.86999176383, 0.04, -0.09, 0.976, 192.0, 0.0, 0.0, 0.0, 0.0, 0.0, 0.0, 0.0, 0.0, 0.0, 1.700578831643212E9, 0.0, 2023-11-21 10:00:31.643
239.0, -1562.923379292891, -1464.1510205448892, -3035.635117964163, 1149.527865591987, 3182.2849133354325, 3454.2609398676086, 282.41429119280474, -4385.456965620157, 0.04, -0.09, 0.976, 192.0, 0.0, 0.0, 0.0, 0.0, 0.0, 0.0, 0.0, 0.0, 0.0, 1.70057883164722E9, 0.0, 2023-11-21 10:00:31.647
240.0, -1553.7591640662151, -1452.0363750501126, -3025.241556792445, 1153.0817929603807, 3182.6648929911726, 3456.7866869910586, 285.7223493721902, -4381.970093485128, 0.038, -0.088, 0.974, 192.0, 1.0, 48.0, 253.0, 64.0, 30.0, 112.0, 0.0, 0.0, 0.0, 1.700578831650224E9, 0.0, 2023-11-21 10:00:31.650
241.0, -1554.3850129109637, -1452.3269477280317, -3031.209472562012, 1142.4200108551993, 3175.847610932304, 3448.2930240980418, 282.213125492707, -4384.451137119668, 0.038, -0.088, 0.974, 192.0, 0.0, 0.0, 0.0, 0.0, 0.0, 0.0, 0.0, 0.0, 0.0, 1.700578831654264E9, 0.0, 2023-11-21 10:00:31.654
242.0, -1559.4141554134078, -1462.7205088997496, -3037.98205113197, 1142.9564527221266, 3177.3898812997204, 3445.834332207958, 279.5309161580701, -4384.026453975017, 0.038, -0.088, 0.974, 192.0, 0.0, 0.0, 0.0, 0.0, 0.0, 0.0, 0.0, 0.0, 0.0, 1.700578831658237E9, 0.0, 2023-11-21 10:00:31.658
243.0, -1549.2888151751538, -1457.6019594194843, -3032.751742929428, 1145.169275423202, 3178.7086342225834, 3449.1423903873433, 280.38028244737177, -4379.377291128313, 0.038, -0.088, 0.974, 192.0, 0.0, 0.0, 0.0, 0.0, 0.0, 0.0, 0.0, 0.0, 0.0, 1.70057883166225E9, 0.0, 2023-11-21 10:00:31.662
244.0, -1548.5288558636732, -1453.9139215843586, -3036.596242975741, 1141.5706445658975, 3178.7309859670386, 3456.2725968685863, 287.19756450624044, -4374.705776537154, 0.038, -0.088, 0.974, 192.0, 0.0, 0.0, 0.0, 0.0, 0.0, 0.0, 0.0, 0.0, 0.0, 1.700578831666273E9, 0.0, 2023-11-21 10:00:31.666
245.0, -1558.0059955127235, -1457.6913663973055, -3035.299841797333, 1144.1634469227133, 3179.848573189804, 3461.0782219264775, 292.9419628312544, -4373.767003270031, 0.038, -0.088, 0.974, 192.0, 0.0, 0.0, 0.0, 0.0, 0.0, 0.0, 0.0, 0.0, 0.0, 1.700578831671275E9, 0.0, 2023-11-21 10:00:31.671
246.0, -1560.8893705474582, -1453.4221832063417, -3022.7828649023613, 1151.8524470153388, 3179.870924934259, 3462.151105660332, 292.80785236452255, -4375.823363759919, 0.038, -0.088, 0.974, 192.0, 0.0, 0.0, 0.0, 0.0, 0.0, 0.0, 0.0, 0.0, 0.0, 1.700578831674293E9, 0.0, 2023-11-21 10:00:31.674
247.0, -1561.0681845031006, -1459.6583199093725, -3029.2648707944004, 1146.3762696237886, 3172.3160353083654, 3454.5515125455277, 285.7894046055561, -4375.935122482196, 0.038, -0.088, 0.974, 192.0, 0.0, 0.0, 0.0, 0.0, 0.0, 0.0, 0.0, 0.0, 0.0, 1.700578831678299E9, 0.0, 2023-11-21 10:00:31.678
248.0, -1562.9680827818017, -1461.0888315545121, -3030.6506789506293, 1144.0516882004367, 3171.064337618868, 3450.0141084211004, 279.70973011371257, -4375.778660271008, 0.038, -0.088, 0.974, 192.0, 0.0, 0.0, 0.0, 0.0, 0.0, 0.0, 0.0, 0.0, 0.0, 1.700578831682285E9, 0.0, 2023-11-21 10:00:31.682
249.0, -1554.5414751221508, -1458.4513257087858, -3036.596242975741, 1145.1916271676573, 3175.8252591878486, 3455.2667683680975, 284.2024307492293, -4365.653320032754, 0.038, -0.088, 0.974, 192.0, 0.0, 0.0, 0.0, 0.0, 0.0, 0.0, 0.0, 0.0, 0.0, 1.700578831686294E9, 0.0, 2023-11-21 10:00:31.686
250.0, -1557.1119257345113, -1465.8721048679479, -3044.17348434609, 1140.0060224540262, 3175.7582039544827, 3453.1433526448436, 285.3200179719947, -4367.307349122447, 0.044, -0.08600000000000001, 0.98, 192.0, 1.0, 96.0, 253.0, 80.0, 30.0, 160.0, 0.0, 0.0, 0.0, 1.700578831690306E9, 0.0, 2023-11-21 10:00:31.690
251.0, -1557.4248501568854, -1461.3794042324312, -3039.9266528995818, 1139.6707462871966, 3177.6357504887287, 3453.9703671896896, 286.61641915040246, -4360.490067063578, 0.044, -0.08600000000000001, 0.98, 192.0, 0.0, 0.0, 0.0, 0.0, 0.0, 0.0, 0.0, 0.0, 0.0, 1.700578831694326E9, 0.0, 2023-11-21 10:00:31.694
252.0, -1559.280044946676, -1456.57377917454, -3034.7410481859506, 1140.4754090875876, 3180.6755877346504, 3456.607873035416, 286.6834743837684, -4358.567817040422, 0.044, -0.08600000000000001, 0.98, 192.0, 0.0, 0.0, 0.0, 0.0, 0.0, 0.0, 0.0, 0.0, 0.0, 1.700578831698371E9, 0.0, 2023-11-21 10:00:31.698
253.0, -1559.637672857961, -1460.0830030540233, -3032.3270597847772, 1139.6483945427412, 3179.5132970229743, 3455.959672446212, 284.89533482734385, -4358.411354829234, 0.044, -0.08600000000000001, 0.98, 192.0, 0.0, 0.0, 0.0, 0.0, 0.0, 0.0, 0.0, 0.0, 0.0, 1.700578831702349E9, 0.0, 2023-11-21 10:00:31.702
254.0, -1558.9447687798463, -1460.060651309568, -3033.332888285266, 1134.8874729737609, 3177.0769568773458, 3450.841122965947, 281.09553826994164, -4352.868122204319, 0.044, -0.08600000000000001, 0.98, 192.0, 0.0, 0.0, 0.0, 0.0, 0.0, 0.0, 0.0, 0.0, 0.0, 1.70057883170535E9, 0.0, 2023-11-21 10:00:31.705
255.0, -1560.6882048473603, -1456.0820407965232, -3030.2930510393444, 1141.168313165702, 3181.6143610017734, 3451.1763991327766, 280.7155586142014, -4352.510494293034, 0.044, -0.08600000000000001, 0.98, 192.0, 0.0, 0.0, 0.0, 0.0, 0.0, 0.0, 0.0, 0.0, 0.0, 1.700578831710342E9, 0.0, 2023-11-21 10:00:31.710
0.0, -1559.6153211135056, -1456.5961309189954, -3033.8693301521935, 1140.6989265321406, 3181.748471468505, 3452.092820655444, 281.6096283924137, -4351.951700681651, 0.044, -0.08600000000000001, 0.98, 192.0, 0.0, 0.0, 0.0, 0.0, 0.0, 0.0, 0.0, 0.0, 0.0, 1.700578831714354E9, 0.0, 2023-11-21 10:00:31.714
1.0, -1561.6493298589385, -1462.474639710741, -3043.055897123325, 1131.7358770055625, 3174.7747271984495, 3447.220140364187, 280.35793070291646, -4352.376383826302, 0.044, -0.08600000000000001, 0.98, 192.0, 0.0, 0.0, 0.0, 0.0, 0.0, 0.0, 0.0, 0.0, 0.0, 1.700578831718404E9, 0.0, 2023-11-21 10:00:31.718
2.0, -1562.4316409148744, -1461.28999725461, -3043.5476355013416, 1129.8583304713168, 3172.5395527529186, 3446.3707740748855, 280.9167243142992, -4351.370555325813, 0.044, -0.08600000000000001, 0.98, 192.0, 0.0, 0.0, 0.0, 0.0, 0.0, 0.0, 0.0, 0.0, 0.0, 1.700578831722372E9, 0.0, 2023-11-21 10:00:31.722
3.0, -1566.9019898059357, -1467.704947913283, -3047.4144872921097, 1129.7242200045848, 3173.053642875391, 3447.3542508309188, 280.8943725698439, -4349.984747169584, 0.044, -0.08600000000000001, 0.98, 192.0, 0.0, 0.0, 0.0, 0.0, 0.0, 0.0, 0.0, 0.0, 0.0, 1.700578831727421E9, 0.0, 2023-11-21 10:00:31.727
4.0, -1571.5288009081842, -1464.3968897338975, -3039.211397077012, 1136.4073915967217, 3178.9545034115918, 3451.6904892552484, 285.0741487829863, -4348.5989390133545, 0.048, -0.08, 0.976, 192.0, 1.0, 128.0, 253.0, 128.0, 30.0, 128.0, 0.0, 0.0, 0.0, 1.7005788317304E9, 0.0, 2023-11-21 10:00:31.730
5.0, -1568.4666119178073, -1456.931407085825, -3031.053010350825, 1134.4851415735652, 3171.5784277413404, 3447.3542508309188, 282.213125492707, -4354.2315786160925, 0.048, -0.08, 0.976, 192.0, 0.0, 0.0, 0.0, 0.0, 0.0, 0.0, 0.0, 0.0, 0.0, 1.700578831733406E9, 0.0, 2023-11-21 10:00:31.733
6.0, -1564.8232775715921, -1464.3521862449868, -3032.684687696062, 1129.9030339602273, 3168.203314328589, 3445.610814763405, 280.24617198063993, -4356.600863528355, 0.048, -0.08, 0.976, 192.0, 0.0, 0.0, 0.0, 0.0, 0.0, 0.0, 0.0, 0.0, 0.0, 1.700578831738412E9, 0.0, 2023-11-21 10:00:31.738
7.0, -1566.4549549168296, -1457.7584216306714, -3024.3921905031434, 1137.1002956748362, 3174.1488783537006, 3450.9752334326786, 283.08484352646394, -4357.964319940129, 0.048, -0.08, 0.976, 192.0, 0.0, 0.0, 0.0, 0.0, 0.0, 0.0, 0.0, 0.0, 0.0, 1.700578831742429E9, 0.0, 2023-11-21 10:00:31.742
8.0, -1558.1624577239106, -1461.9829013327244, -3038.496141254442, 1135.1109904183138, 3177.6357504887287, 3453.3668700893963, 287.89046858435495, -4351.81759021492, 0.048, -0.08, 0.976, 192.0, 0.0, 0.0, 0.0, 0.0, 0.0, 0.0, 0.0, 0.0, 0.0, 1.70057883174643E9, 0.0, 2023-11-21 10:00:31.746
9.0, -1558.855361802025, -1462.251122266188, -3039.814894177305, 1135.334507862867, 3179.334483067332, 3454.417402078796, 290.97500931918734, -4353.315157093425, 0.048, -0.08, 0.976, 192.0, 0.0, 0.0, 0.0, 0.0, 0.0, 0.0, 0.0, 0.0, 0.0, 1.700578831750396E9, 0.0, 2023-11-21 10:00:31.750
10.0, -1564.0409665156565, -1458.898360597892, -3035.4116005196097, 1141.3024236324338, 3181.0108639014798, 3454.7526782456257, 289.4997941851371, -4363.239331631581, 0.048, -0.08, 0.976, 192.0, 0.0, 0.0, 0.0, 0.0, 0.0, 0.0, 0.0, 0.0, 0.0, 1.700578831754438E9, 0.0, 2023-11-21 10:00:31.754
11.0, -1565.8067543276256, -1458.1384012864116, -3030.494216739442, 1142.7329352775737, 3179.8262214453484, 3453.456277067218, 290.05858779651976, -4365.0945264213715, 0.048, -0.08, 0.976, 192.0, 0.0, 0.0, 0.0, 0.0, 0.0, 0.0, 0.0, 0.0, 0.0, 1.700578831758445E9, 0.0, 2023-11-21 10:00:31.758
12.0, -1561.3587571810197, -1456.1937995187998, -3026.4485509930314, 1145.0575167009256, 3180.228552845544, 3451.466971810695, 290.63973315235773, -4364.781601998997, 0.048, -0.08, 0.976, 192.0, 0.0, 0.0, 0.0, 0.0, 0.0, 0.0, 0.0, 0.0, 0.0, 1.700578831761466E9, 0.0, 2023-11-21 10:00:31.761
13.0, -1553.088611732556, -1447.47661918123, -3021.620574190685, 1150.5336940924758, 3187.3811110712422, 3454.5291608010725, 294.3277709874834, -4363.753421754053, 0.048, -0.08, 0.976, 192.0, 0.0, 0.0, 0.0, 0.0, 0.0, 0.0, 0.0, 0.0, 0.0, 1.70057883176647E9, 0.0, 2023-11-21 10:00:31.766
14.0, -1550.540512864651, -1438.5359213991073, -3015.78676888785, 1150.176066181191, 3186.062358148379, 3456.1831898907653, 295.44535821024874, -4367.57557005591, 0.046, -0.08600000000000001, 0.974, 192.0, 1.0, 112.0, 253.0, 80.0, 30.0, 112.0, 0.0, 0.0, 0.0, 1.700578831770484E9, 0.0, 2023-11-21 10:00:31.770
15.0, -1564.085670004567, -1447.5660261590513, -3021.8664433796935, 1144.3869643672663, 3178.328654566843, 3450.1705706322878, 288.69513138474605, -4374.906942237251, 0.046, -0.08600000000000001, 0.974, 192.0, 0.0, 0.0, 0.0, 0.0, 0.0, 0.0, 0.0, 0.0, 0.0, 1.700578831774494E9, 0.0, 2023-11-21 10:00:31.774
16.0, -1563.4598211598184, -1455.120915784945, -3023.274603280378, 1150.0643074589143, 3182.3519685687984, 3451.6904892552484, 290.4832709411706, -4374.392852114779, 0.046, -0.08600000000000001, 0.974, 192.0, 0.0, 0.0, 0.0, 0.0, 0.0, 0.0, 0.0, 0.0, 0.0, 1.700578831778501E9, 0.0, 2023-11-21 10:00:31.778
17.0, -1558.4530304018297, -1453.2433692506993, -3019.4971584674313, 1154.5123046055205, 3184.2518668474995, 3453.344518344941, 292.76314887561193, -4376.3598056268465, 0.046, -0.08600000000000001, 0.974, 192.0, 0.0, 0.0, 0.0, 0.0, 0.0, 0.0, 0.0, 0.0, 0.0, 1.700578831782525E9, 0.0, 2023-11-21 10:00:31.782
18.0, -1559.5259141356844, -1450.248235493688, -3020.8382631347495, 1153.1935516826572, 3186.1517651262006, 3453.322166600486, 292.6290384088801, -4385.792241786986, 0.046, -0.08600000000000001, 0.974, 192.0, 0.0, 0.0, 0.0, 0.0, 0.0, 0.0, 0.0, 0.0, 0.0, 1.700578831786518E9, 0.0, 2023-11-21 10:00:31.786
19.0, -1552.1051349765223, -1446.023755791635, -3021.3970567461324, 1154.557008094431, 3186.375282570754, 3454.9538439457233, 292.83020410897785, -4386.9321807542065, 0.046, -0.08600000000000001, 0.974, 192.0, 0.0, 0.0, 0.0, 0.0, 0.0, 0.0, 0.0, 0.0, 0.0, 1.700578831789533E9, 0.0, 2023-11-21 10:00:31.789
20.0, -1555.0108617557123, -1450.4270494493305, -3021.1511875571236, 1154.4676011166098, 3184.9224191811586, 3453.9033119563237, 289.857422096422, -4391.469584878634, 0.046, -0.08600000000000001, 0.974, 192.0, 0.0, 0.0, 0.0, 0.0, 0.0, 0.0, 0.0, 0.0, 0.0, 1.700578831793548E9, 0.0, 2023-11-21 10:00:31.793
21.0, -1555.2120274558101, -1446.0908110250011, -3019.1618823006015, 1151.9642057376154, 3181.077919134846, 3451.5340270440615, 286.50466042812593, -4394.285904680002, 0.046, -0.08600000000000001, 0.974, 192.0, 0.0, 0.0, 0.0, 0.0, 0.0, 0.0, 0.0, 0.0, 0.0, 1.700578831798545E9, 0.0, 2023-11-21 10:00:31.798
22.0, -1556.6648908454051, -1461.0441280656014, -3038.3620307877104, 1142.7552870220288, 3174.3500440537982, 3448.605948520416, 281.2520004811288, -4393.101262223871, 0.046, -0.08600000000000001, 0.974, 192.0, 0.0, 0.0, 0.0, 0.0, 0.0, 0.0, 0.0, 0.0, 0.0, 1.700578831802582E9, 0.0, 2023-11-21 10:00:31.802
23.0, -1549.6240913419833, -1455.8138198630595, -3031.991783617948, 1144.5434265784534, 3180.8320499458373, 3453.8809602118686, 283.9565615602209, -4390.642570333787, 0.046, -0.08600000000000001, 0.974, 192.0, 0.0, 0.0, 0.0, 0.0, 0.0, 0.0, 0.0, 0.0, 0.0, 1.700578831806563E9, 0.0, 2023-11-21 10:00:31.806
24.0, -1545.7125360623047, -1440.4358196778082, -3013.2610217644005, 1153.9982144830483, 3185.5706197703626, 3457.770163747092, 286.147032516841, -4391.938971512195, 0.042, -0.088, 0.98, 192.0, 1.0, 80.0, 253.0, 64.0, 30.0, 160.0, 0.0, 0.0, 0.0, 1.700578831810565E9, 0.0, 2023-11-21 10:00:31.810
25.0, -1555.7708210671929, -1447.543674414596, -3023.6098794472077, 1150.3548801368333, 3181.077919134846, 3457.345480602441, 283.15189875982986, -4394.308256424458, 0.042, -0.088, 0.98, 192.0, 0.0, 0.0, 0.0, 0.0, 0.0, 0.0, 0.0, 0.0, 0.0, 1.700578831814542E9, 0.0, 2023-11-21 10:00:31.814
26.0, -1557.670719345894, -1458.2054565197775, -3035.6127662197073, 1145.4374963566656, 3176.8310876883374, 3456.5631695465054, 281.3190557144947, -4397.526907626022, 0.042, -0.088, 0.98, 192.0, 0.0, 0.0, 0.0, 0.0, 0.0, 0.0, 0.0, 0.0, 0.0, 1.700578831817588E9, 0.0, 2023-11-21 10:00:31.817
27.0, -1557.827181557081, -1455.5903024185066, -3031.432990006565, 1151.5171708485093, 3180.809698201382, 3458.306605614019, 284.5600586605142, -4398.689198337698, 0.042, -0.088, 0.98, 192.0, 0.0, 0.0, 0.0, 0.0, 0.0, 0.0, 0.0, 0.0, 0.0, 1.700578831821688E9, 0.0, 2023-11-21 10:00:31.821
28.0, -1554.6755855888828, -1452.9080930838697, -3033.914033641104, 1150.84661851485, 3181.6143610017734, 3457.904274213824, 287.51048892861473, -4398.488032637601, 0.042, -0.088, 0.98, 192.0, 0.0, 0.0, 0.0, 0.0, 0.0, 0.0, 0.0, 0.0, 0.0, 1.70057883182666E9, 0.0, 2023-11-21 10:00:31.826
29.0, -1553.5356466216622, -1452.8410378505037, -3028.12493182718, 1155.1158017058137, 3183.0001691580023, 3456.898445713335, 287.0858057839639, -4400.522041383033, 0.042, -0.088, 0.98, 192.0, 0.0, 0.0, 0.0, 0.0, 0.0, 0.0, 0.0, 0.0, 0.0, 1.700578831830662E9, 0.0, 2023-11-21 10:00:31.830
30.0, -1554.8767512889806, -1448.7283168707272, -3019.8771381231713, 1160.6366825862744, 3186.084709892835, 3458.5971782919382, 289.1645180183075, -4401.036131505505, 0.042, -0.088, 0.98, 192.0, 0.0, 0.0, 0.0, 0.0, 0.0, 0.0, 0.0, 0.0, 0.0, 1.700578831834623E9, 0.0, 2023-11-21 10:00:31.834
31.0, -1554.4967716332403, -1447.5883779035066, -3021.59822244623, 1159.3402814078668, 3183.849535447304, 3460.7429457596477, 288.4492621957376, -4403.472471651134, 0.042, -0.088, 0.98, 192.0, 0.0, 0.0, 0.0, 0.0, 0.0, 0.0, 0.0, 0.0, 0.0, 1.700578831837688E9, 0.0, 2023-11-21 10:00:31.837
32.0, -1553.669757088394, -1452.505761683674, -3028.16963531609, 1155.5404848504645, 3181.4131953016754, 3457.5913497914494, 285.0965005274416, -4405.72999784112, 0.042, -0.088, 0.98, 192.0, 0.0, 0.0, 0.0, 0.0, 0.0, 0.0, 0.0, 0.0, 0.0, 1.700578831841653E9, 0.0, 2023-11-21 10:00:31.841
33.0, -1548.3500419080308, -1448.773020359638, -3026.5826614597636, 1154.199380183146, 3181.7708232129603, 3456.5408178020502, 286.90699182832145, -4402.757215828564, 0.042, -0.088, 0.98, 192.0, 0.0, 0.0, 0.0, 0.0, 0.0, 0.0, 0.0, 0.0, 0.0, 1.700578831845659E9, 0.0, 2023-11-21 10:00:31.845
34.0, -1553.468591388296, -1447.7224883702384, -3027.3649725156993, 1153.3723656382997, 3183.9836459140356, 3455.713803257204, 286.95169531723207, -4402.3101809394575, 0.04, -0.08600000000000001, 0.974, 192.0, 1.0, 64.0, 253.0, 80.0, 30.0, 112.0, 0.0, 0.0, 0.0, 1.700578831849665E9, 0.0, 2023-11-21 10:00:31.849
35.0, -1555.9496350228353, -1447.2083982477664, -3023.498120724931, 1155.2946156614562, 3185.749433726005, 3456.674928268782, 287.0858057839639, -4403.673637351231, 0.04, -0.08600000000000001, 0.974, 192.0, 0.0, 0.0, 0.0, 0.0, 0.0, 0.0, 0.0, 0.0, 0.0, 1.700578831854674E9, 0.0, 2023-11-21 10:00:31.854
36.0, -1554.3626611665084, -1444.056802279568, -3017.820777633283, 1156.5016098620426, 3185.168288370167, 3455.3338236014633, 284.8282795939779, -4406.512308897056, 0.04, -0.08600000000000001, 0.974, 192.0, 0.0, 0.0, 0.0, 0.0, 0.0, 0.0, 0.0, 0.0, 0.0, 1.700578831858625E9, 0.0, 2023-11-21 10:00:31.858
37.0, -1548.282986674665, -1439.3405841994984, -3018.3125160113, 1150.0196039700036, 3184.6989017366054, 3449.857646209913, 284.3365412159611, -4401.907849539262, 0.04, -0.08600000000000001, 0.974, 192.0, 0.0, 0.0, 0.0, 0.0, 0.0, 0.0, 0.0, 0.0, 0.0, 1.70057883186268E9, 0.0, 2023-11-21 10:00:31.862
38.0, -1556.441373400852, -1442.3133662120542, -3013.9986293314255, 1152.6571098157299, 3189.906858194692, 3447.6671752532934, 284.761224360612, -4403.941858284696, 0.04, -0.08600000000000001, 0.974, 192.0, 0.0, 0.0, 0.0, 0.0, 0.0, 0.0, 0.0, 0.0, 0.0, 1.700578831865701E9, 0.0, 2023-11-21 10:00:31.865
39.0, -1550.696975075838, -1439.3852876884089, -3007.181347272557, 1161.910732020227, 3200.1886606441335, 3456.2055416352205, 292.7184453867013, -4396.409320403257, 0.04, -0.08600000000000001, 0.974, 192.0, 0.0, 0.0, 0.0, 0.0, 0.0, 0.0, 0.0, 0.0, 0.0, 1.700578831869696E9, 0.0, 2023-11-21 10:00:31.869
40.0, -1545.5784255955728, -1439.2735289661323, -3018.2007572890234, 1158.0215284850035, 3201.2615443779882, 3461.704070771226, 296.98762857766496, -4392.341302912391, 0.04, -0.08600000000000001, 0.974, 192.0, 0.0, 0.0, 0.0, 0.0, 0.0, 0.0, 0.0, 0.0, 0.0, 1.700578831873709E9, 0.0, 2023-11-21 10:00:31.873
41.0, -1565.02444327169, -1458.5630844310624, -3033.1540743296237, 1143.2246736555903, 3186.464689548575, 3449.835294465458, 284.5600586605142, -4410.423864176734, 0.04, -0.08600000000000001, 0.974, 192.0, 0.0, 0.0, 0.0, 0.0, 0.0, 0.0, 0.0, 0.0, 0.0, 1.70057883187771E9, 0.0, 2023-11-21 10:00:31.877
42.0, -1560.3529286805308, -1459.345395486998, -3036.7080016980176, 1135.6027287963307, 3179.6697592341616, 3447.7565822311144, 281.6543318813243, -4406.288791452503, 0.04, -0.08600000000000001, 0.974, 192.0, 0.0, 0.0, 0.0, 0.0, 0.0, 0.0, 0.0, 0.0, 0.0, 1.700578831881712E9, 0.0, 2023-11-21 10:00:31.881
43.0, -1550.5852163535615, -1450.248235493688, -3023.0287340913696, 1147.7397260355624, 3194.243096619022, 3460.184152148265, 290.66208489681304, -4402.645457106288, 0.04, -0.08600000000000001, 0.974, 192.0, 0.0, 0.0, 0.0, 0.0, 0.0, 0.0, 0.0, 0.0, 0.0, 1.700578831886727E9, 0.0, 2023-11-21 10:00:31.886
44.0, -1553.7591640662151, -1450.5835116605178, -3018.69249566704, 1145.0128132120149, 3192.253791362499, 3453.2774631115753, 286.7505296171343, -4403.047788506483, 0.038, -0.09, 0.98, 192.0, 1.0, 48.0, 253.0, 48.0, 30.0, 160.0, 0.0, 0.0, 0.0, 1.700578831890741E9, 0.0, 2023-11-21 10:00:31.890
45.0, -1553.9156262774022, -1442.4027731898755, -3011.6963996525287, 1145.593958567853, 3191.7397012400274, 3450.505846799117, 286.6611226393131, -4401.326704183424, 0.038, -0.09, 0.98, 192.0, 0.0, 0.0, 0.0, 0.0, 0.0, 0.0, 0.0, 0.0, 0.0, 1.700578831893742E9, 0.0, 2023-11-21 10:00:31.893
46.0, -1555.5473036226397, -1448.0130610481574, -3030.9412516285483, 1139.5142840760093, 3190.8232797173596, 3451.802247977525, 286.16938426129633, -4401.4831663946115, 0.038, -0.09, 0.98, 192.0, 0.0, 0.0, 0.0, 0.0, 0.0, 0.0, 0.0, 0.0, 0.0, 1.700578831897748E9, 0.0, 2023-11-21 10:00:31.897
47.0, -1547.053640729623, -1447.186046503311, -3034.629289463674, 1137.457923586121, 3190.5103552949854, 3455.356175345919, 289.9468290742432, -4396.744596570086, 0.038, -0.09, 0.98, 192.0, 0.0, 0.0, 0.0, 0.0, 0.0, 0.0, 0.0, 0.0, 0.0, 1.700578831901766E9, 0.0, 2023-11-21 10:00:31.901
48.0, -1551.4569343873186, -1444.7273546132274, -3028.0578765938135, 1142.46471434411, 3192.007922173491, 3455.736155001659, 291.9361343307655, -4397.057520992461, 0.038, -0.09, 0.98, 192.0, 0.0, 0.0, 0.0, 0.0, 0.0, 0.0, 0.0, 0.0, 0.0, 1.700578831905779E9, 0.0, 2023-11-21 10:00:31.905
49.0, -1557.7154228348045, -1450.1141250269563, -3026.9626411155036, 1148.0526504579366, 3191.4044250731977, 3454.439753823251, 290.30445698552813, -4399.426805904724, 0.038, -0.09, 0.98, 192.0, 0.0, 0.0, 0.0, 0.0, 0.0, 0.0, 0.0, 0.0, 0.0, 1.700578831909818E9, 0.0, 2023-11-21 10:00:31.909
50.0, -1552.2392454432543, -1450.225883749233, -3017.9325363555595, 1153.5511795939422, 3190.4880035505303, 3454.0150706786003, 290.8185471080002, -4399.516212882544, 0.038, -0.09, 0.98, 192.0, 0.0, 0.0, 0.0, 0.0, 0.0, 0.0, 0.0, 0.0, 0.0, 1.700578831914792E9, 0.0, 2023-11-21 10:00:31.914
51.0, -1553.2674256881985, -1446.5825494030178, -3016.6361351771516, 1155.6745953171965, 3191.1138523952786, 3455.065602668, 290.43856745226, -4399.091529737893, 0.038, -0.09, 0.98, 192.0, 0.0, 0.0, 0.0, 0.0, 0.0, 0.0, 0.0, 0.0, 0.0, 1.700578831917802E9, 0.0, 2023-11-21 10:00:31.917
52.0, -1558.1177542350001, -1438.9382527993027, -3015.3844374876544, 1157.172162195702, 3191.851459962304, 3457.5242945580835, 290.41621570780467, -4401.773739072531, 0.038, -0.09, 0.98, 192.0, 0.0, 0.0, 0.0, 0.0, 0.0, 0.0, 0.0, 0.0, 0.0, 1.700578831920811E9, 0.0, 2023-11-21 10:00:31.920
53.0, -1550.0040709977236, -1438.5582731435625, -3019.8994898676265, 1155.6745953171965, 3193.0137506739798, 3456.987852691156, 291.66791339730185, -4398.175108215226, 0.038, -0.09, 0.98, 192.0, 0.0, 0.0, 0.0, 0.0, 0.0, 0.0, 0.0, 0.0, 0.0, 1.700578831925816E9, 0.0, 2023-11-21 10:00:31.925
54.0, -1555.8378763005587, -1442.0004417896798, -3024.526300969875, 1154.5123046055205, 3193.818413474371, 3456.7196317576927, 293.16548027580745, -4396.722244825631, 0.038, -0.092, 0.98, 192.0, 1.0, 48.0, 253.0, 32.0, 30.0, 160.0, 0.0, 0.0, 0.0, 1.70057883192981E9, 0.0, 2023-11-21 10:00:31.929
55.0, -1560.6882048473603, -1443.0733255235345, -3024.280431780867, 1152.0983162043472, 3190.242134361522, 3455.1773613902765, 290.8185471080002, -4400.142061727293, 0.038, -0.092, 0.98, 192.0, 0.0, 0.0, 0.0, 0.0, 0.0, 0.0, 0.0, 0.0, 0.0, 1.700578831933844E9, 0.0, 2023-11-21 10:00:31.933
56.0, -1558.050699001634, -1443.408601690364, -3024.3921905031434, 1151.3383568928668, 3189.4821750500414, 3456.987852691156, 289.9021255853326, -4397.191631459193, 0.038, -0.092, 0.98, 192.0, 0.0, 0.0, 0.0, 0.0, 0.0, 0.0, 0.0, 0.0, 0.0, 1.700578831937837E9, 0.0, 2023-11-21 10:00:31.937
57.0, -1560.4870391472625, -1446.157866258367, -3026.6720684375846, 1148.5667405804088, 3188.5210500384633, 3454.506809056617, 286.63877089485777, -4402.645457106288, 0.038, -0.092, 0.98, 192.0, 0.0, 0.0, 0.0, 0.0, 0.0, 0.0, 0.0, 0.0, 0.0, 1.700578831941873E9, 0.0, 2023-11-21 10:00:31.941
58.0, -1556.441373400852, -1444.414430190853, -3024.593356203241, 1149.9525487366377, 3189.5715820278624, 3453.702146256226, 288.24809649563986, -4402.936029784207, 0.038, -0.092, 0.98, 192.0, 0.0, 0.0, 0.0, 0.0, 0.0, 0.0, 0.0, 0.0, 0.0, 1.70057883194585E9, 0.0, 2023-11-21 10:00:31.945
59.0, -1554.3850129109637, -1445.3979069468865, -3024.5486527143303, 1150.3548801368333, 3187.939904682625, 3451.6234340218825, 289.38803546286056, -4400.209116960659, 0.038, -0.092, 0.98, 192.0, 0.0, 0.0, 0.0, 0.0, 0.0, 0.0, 0.0, 0.0, 0.0, 1.700578831949854E9, 0.0, 2023-11-21 10:00:31.949
60.0, -1548.9535390083242, -1442.0674970230457, -3023.2298997914672, 1152.7018133046406, 3187.984608171536, 3450.4611433102064, 290.8185471080002, -4397.482204137112, 0.038, -0.092, 0.98, 192.0, 0.0, 0.0, 0.0, 0.0, 0.0, 0.0, 0.0, 0.0, 0.0, 1.700578831953862E9, 0.0, 2023-11-21 10:00:31.953
61.0, -1552.3510041655309, -1442.0674970230457, -3022.3134782688, 1153.4841243605763, 3187.6716837491613, 3451.422268321785, 293.14312853135215, -4398.465680893145, 0.038, -0.092, 0.98, 192.0, 0.0, 0.0, 0.0, 0.0, 0.0, 0.0, 0.0, 0.0, 0.0, 1.700578831957876E9, 0.0, 2023-11-21 10:00:31.957
62.0, -1555.7708210671929, -1443.4533051792748, -3021.665277679596, 1152.5677028379087, 3186.8223174598597, 3454.372698589885, 294.50658494312586, -4398.465680893145, 0.038, -0.092, 0.98, 192.0, 0.0, 0.0, 0.0, 0.0, 0.0, 0.0, 0.0, 0.0, 0.0, 1.700578831961904E9, 0.0, 2023-11-21 10:00:31.961
63.0, -1557.6930710903491, -1442.0227935341352, -3020.2571177789114, 1155.3393191503667, 3190.0186169169688, 3457.0102044356117, 293.9030878428326, -4401.304352438969, 0.038, -0.092, 0.98, 192.0, 0.0, 0.0, 0.0, 0.0, 0.0, 0.0, 0.0, 0.0, 0.0, 1.700578831965869E9, 0.0, 2023-11-21 10:00:31.965
64.0, -1557.1789809678771, -1446.7166598697497, -3023.207548047012, 1152.7688685380065, 3188.945733183114, 3455.222064879187, 292.5619831755141, -4405.327666440924, 0.04, -0.09, 0.976, 192.0, 1.0, 64.0, 253.0, 48.0, 30.0, 128.0, 0.0, 0.0, 0.0, 1.700578831969912E9, 0.0, 2023-11-21 10:00:31.969
65.0, -1556.9554635233242, -1447.47661918123, -3022.7605131579057, 1150.2878249034673, 3187.3811110712422, 3452.808076478014, 292.02554130858675, -4402.734864084108, 0.04, -0.09, 0.976, 192.0, 0.0, 0.0, 0.0, 0.0, 0.0, 0.0, 0.0, 0.0, 0.0, 1.700578831973926E9, 0.0, 2023-11-21 10:00:31.973
66.0, -1561.7834403256704, -1450.3376424715093, -3026.69442018204, 1149.013775469515, 3184.073052891857, 3448.605948520416, 287.0634540395086, -4404.612410618354, 0.04, -0.09, 0.976, 192.0, 0.0, 0.0, 0.0, 0.0, 0.0, 0.0, 0.0, 0.0, 0.0, 1.700578831976919E9, 0.0, 2023-11-21 10:00:31.976
67.0, -1556.374318167486, -1446.8731220809368, -3025.554481214819, 1152.5229993489982, 3186.5540965263963, 3452.316338099997, 287.89046858435495, -4403.472471651134, 0.04, -0.09, 0.976, 192.0, 0.0, 0.0, 0.0, 0.0, 0.0, 0.0, 0.0, 0.0, 0.0, 1.700578831981934E9, 0.0, 2023-11-21 10:00:31.981
68.0, -1551.7475070652374, -1441.1957789892888, -3022.894623624638, 1154.6017115833417, 3190.5774105283513, 3459.0442131810446, 292.4278727087823, -4395.49289888059, 0.04, -0.09, 0.976, 192.0, 0.0, 0.0, 0.0, 0.0, 0.0, 0.0, 0.0, 0.0, 0.0, 1.70057883198594E9, 0.0, 2023-11-21 10:00:31.985
69.0, -1554.2732541886871, -1440.8157993335485, -3024.9956876034366, 1154.3781941387886, 3189.4821750500414, 3456.2725968685863, 290.63973315235773, -4393.593000601888, 0.04, -0.09, 0.976, 192.0, 0.0, 0.0, 0.0, 0.0, 0.0, 0.0, 0.0, 0.0, 0.0, 1.700578831989945E9, 0.0, 2023-11-21 10:00:31.989
70.0, -1560.2635217027096, -1442.4698284232413, -3022.335830013255, 1157.105106962336, 3192.7678814849714, 3452.316338099997, 289.99153256315384, -4398.309218681958, 0.04, -0.09, 0.976, 192.0, 0.0, 0.0, 0.0, 0.0, 0.0, 0.0, 0.0, 0.0, 0.0, 1.70057883199395E9, 0.0, 2023-11-21 10:00:31.993
71.0, -1555.0332135001677, -1446.38138370292, -3026.180330059568, 1151.1818946816798, 3188.096366893812, 3446.929567686268, 290.2374017521622, -4401.282000694514, 0.04, -0.09, 0.976, 192.0, 0.0, 0.0, 0.0, 0.0, 0.0, 0.0, 0.0, 0.0, 0.0, 1.700578831997964E9, 0.0, 2023-11-21 10:00:31.997
72.0, -1563.5492281376396, -1447.4095639478642, -3022.4475887355316, 1156.3227959064002, 3190.644465761717, 3453.5903875339495, 294.2830674985728, -4402.4219396617345, 0.04, -0.09, 0.976, 192.0, 0.0, 0.0, 0.0, 0.0, 0.0, 0.0, 0.0, 0.0, 0.0, 1.700578832001013E9, 0.0, 2023-11-21 10:00:32.001
73.0, -1559.0118240132124, -1445.5543691580738, -3023.78869340285, 1154.3781941387886, 3189.750395983505, 3455.646748023838, 293.52310818709236, -4406.132329241315, 0.04, -0.09, 0.976, 192.0, 0.0, 0.0, 0.0, 0.0, 0.0, 0.0, 0.0, 0.0, 0.0, 1.700578832005005E9, 0.0, 2023-11-21 10:00:32.005
74.0, -1558.184809468366, -1444.3026714685764, -3024.369838758688, 1152.813572026917, 3189.7280442390497, 3457.7254602581816, 294.46188145421524, -4405.1265007408265, 0.046, -0.09, 0.976, 192.0, 1.0, 112.0, 253.0, 48.0, 30.0, 128.0, 0.0, 0.0, 0.0, 1.700578832009998E9, 0.0, 2023-11-21 10:00:32.009
75.0, -1551.9486727653352, -1438.3571074434649, -3015.07151306528, 1161.4413453866655, 3196.2771053644547, 3461.704070771226, 295.87004135489957, -4399.1362332268045, 0.046, -0.09, 0.976, 192.0, 0.0, 0.0, 0.0, 0.0, 0.0, 0.0, 0.0, 0.0, 0.0, 1.700578832014018E9, 0.0, 2023-11-21 10:00:32.014
76.0, -1549.8029052976258, -1436.3454504424872, -3008.9694868289816, 1166.269322189012, 3197.6405617762284, 3463.9392452167567, 294.77480587658954, -4396.610486103355, 0.046, -0.09, 0.976, 192.0, 0.0, 0.0, 0.0, 0.0, 0.0, 0.0, 0.0, 0.0, 0.0, 1.700578832018029E9, 0.0, 2023-11-21 10:00:32.018
77.0, -1560.2188182137988, -1440.6146336334507, -3004.2085652600013, 1159.8990750192495, 3188.945733183114, 3455.289120112553, 285.63294239436897, -4407.227564719626, 0.046, -0.09, 0.976, 192.0, 0.0, 0.0, 0.0, 0.0, 0.0, 0.0, 0.0, 0.0, 0.0, 1.700578832022036E9, 0.0, 2023-11-21 10:00:32.022
78.0, -1557.4248501568854, -1435.6525463643727, -3002.8004053593168, 1155.6075400838304, 3185.7047302370943, 3453.8809602118686, 288.3151517290058, -4404.545355384988, 0.046, -0.09, 0.976, 192.0, 0.0, 0.0, 0.0, 0.0, 0.0, 0.0, 0.0, 0.0, 0.0, 1.70057883202604E9, 0.0, 2023-11-21 10:00:32.026
79.0, -1554.630882099972, -1456.2161512632551, -3036.0374493643585, 1143.2470254000457, 3186.5317447819407, 3457.345480602441, 295.17713727678506, -4400.320875682935, 0.046, -0.09, 0.976, 192.0, 0.0, 0.0, 0.0, 0.0, 0.0, 0.0, 0.0, 0.0, 0.0, 1.700578832030044E9, 0.0, 2023-11-21 10:00:32.030
80.0, -1553.3791844104749, -1459.9265408428362, -3033.5117022409086, 1148.7679062805064, 3191.1585558841894, 3457.8595707249133, 295.9370965882655, -4403.114843739849, 0.046, -0.09, 0.976, 192.0, 0.0, 0.0, 0.0, 0.0, 0.0, 0.0, 0.0, 0.0, 0.0, 1.700578832033049E9, 0.0, 2023-11-21 10:00:32.033
81.0, -1555.4578966448184, -1452.505761683674, -3022.961678858004, 1148.2761679024898, 3191.0244454174576, 3458.619530036394, 295.3559512324275, -4402.332532683913, 0.046, -0.09, 0.976, 192.0, 0.0, 0.0, 0.0, 0.0, 0.0, 0.0, 0.0, 0.0, 0.0, 1.700578832038056E9, 0.0, 2023-11-21 10:00:32.038
82.0, -1551.4569343873186, -1447.543674414596, -3017.2396322774453, 1150.8913220037607, 3191.337369839832, 3459.4688963256954, 294.10425354293034, -4400.097358238382, 0.046, -0.09, 0.976, 192.0, 0.0, 0.0, 0.0, 0.0, 0.0, 0.0, 0.0, 0.0, 0.0, 1.700578832042046E9, 0.0, 2023-11-21 10:00:32.042
83.0, -1570.4335654298743, -1453.1092587839676, -3019.7430276564396, 1147.1362289352692, 3187.4705180490637, 3452.763372989103, 288.6057244069248, -4408.971000787139, 0.046, -0.09, 0.976, 192.0, 0.0, 0.0, 0.0, 0.0, 0.0, 0.0, 0.0, 0.0, 0.0, 1.700578832046076E9, 0.0, 2023-11-21 10:00:32.046
84.0, -1563.6609868599162, -1442.961566801258, -3007.0025333169147, 1154.8922842612606, 3195.58420128634, 3458.999509692134, 295.6688756548018, -4404.120672240338, 0.046, -0.092, 0.974, 192.0, 1.0, 112.0, 253.0, 32.0, 30.0, 112.0, 0.0, 0.0, 0.0, 1.700578832050094E9, 0.0, 2023-11-21 10:00:32.050
85.0, -1556.1284489784778, -1443.028622034624, -3007.5836786727523, 1153.5064761050317, 3195.159518141689, 3458.217198636198, 294.2830674985728, -4402.265477450547, 0.046, -0.092, 0.974, 192.0, 0.0, 0.0, 0.0, 0.0, 0.0, 0.0, 0.0, 0.0, 0.0, 1.70057883205309E9, 0.0, 2023-11-21 10:00:32.053
86.0, -1563.9068560489245, -1438.1335899989117, -3006.0637600497917, 1155.0040429835371, 3195.9865326865356, 3458.999509692134, 291.8467273529443, -4407.272268208536, 0.046, -0.092, 0.974, 192.0, 0.0, 0.0, 0.0, 0.0, 0.0, 0.0, 0.0, 0.0, 0.0, 1.700578832057115E9, 0.0, 2023-11-21 10:00:32.057
87.0, -1564.1974287268436, -1442.7156976122496, -3015.07151306528, 1152.813572026917, 3193.594896029818, 3459.670062025793, 290.5950296634471, -4408.792186831497, 0.046, -0.092, 0.974, 192.0, 0.0, 0.0, 0.0, 0.0, 0.0, 0.0, 0.0, 0.0, 0.0, 1.700578832061122E9, 0.0, 2023-11-21 10:00:32.061
88.0, -1560.4870391472625, -1449.1530000153782, -3022.4252369910764, 1152.6794615601852, 3192.901991951703, 3461.63701553786, 291.31028548601694, -4405.662942607754, 0.046, -0.092, 0.974, 192.0, 0.0, 0.0, 0.0, 0.0, 0.0, 0.0, 0.0, 0.0, 0.0, 1.700578832065144E9, 0.0, 2023-11-21 10:00:32.065
89.0, -1558.3636234240084, -1447.5213226701408, -3023.900452125127, 1149.2596446585233, 3192.901991951703, 3460.586483548461, 290.66208489681304, -4404.455948407167, 0.046, -0.092, 0.974, 192.0, 0.0, 0.0, 0.0, 0.0, 0.0, 0.0, 0.0, 0.0, 0.0, 1.700578832070165E9, 0.0, 2023-11-21 10:00:32.070
90.0, -1557.9389402793577, -1442.1122005119564, -3018.6477921781293, 1145.2139789121127, 3191.650294262206, 3461.994643449145, 290.9079540858214, -4401.505518139067, 0.046, -0.092, 0.974, 192.0, 0.0, 0.0, 0.0, 0.0, 0.0, 0.0, 0.0, 0.0, 0.0, 1.700578832074129E9, 0.0, 2023-11-21 10:00:32.074
91.0, -1565.2256089717878, -1442.223959234233, -3014.020981075881, 1148.0973539468473, 3193.974875685558, 3464.2074661502206, 293.567811676003, -4406.981695530617, 0.046, -0.092, 0.974, 192.0, 0.0, 0.0, 0.0, 0.0, 0.0, 0.0, 0.0, 0.0, 0.0, 1.70057883207814E9, 0.0, 2023-11-21 10:00:32.078
92.0, -1559.6153211135056, -1428.9470230277805, -2998.7770913573613, 1154.9816912390818, 3196.0535879199015, 3463.805134750025, 295.49006169915936, -4404.120672240338, 0.046, -0.092, 0.974, 192.0, 0.0, 0.0, 0.0, 0.0, 0.0, 0.0, 0.0, 0.0, 0.0, 1.70057883208114E9, 0.0, 2023-11-21 10:00:32.081
93.0, -1559.4365071578632, -1422.0403339910906, -2992.853879076705, 1161.910732020227, 3200.2557158774994, 3467.6496347963375, 299.3792652343828, -4401.036131505505, 0.046, -0.092, 0.974, 192.0, 0.0, 0.0, 0.0, 0.0, 0.0, 0.0, 0.0, 0.0, 0.0, 1.700578832085155E9, 0.0, 2023-11-21 10:00:32.085
94.0, -1566.4326031723742, -1441.642813878395, -3013.506890953409, 1156.233388928579, 3196.0088844309907, 3462.8216579939913, 295.6688756548018, -4404.165375729248, 0.04, -0.096, 0.976, 192.0, 1.0, 64.0, 253.0, 0.0, 30.0, 128.0, 0.0, 0.0, 0.0, 1.700578832089206E9, 0.0, 2023-11-21 10:00:32.089
95.0, -1567.0137485282123, -1459.4571542092747, -3033.2658330519002, 1142.5764730663864, 3183.0225209024575, 3452.6292625223714, 290.43856745226, -4403.450119906678, 0.04, -0.096, 0.976, 192.0, 0.0, 0.0, 0.0, 0.0, 0.0, 0.0, 0.0, 0.0, 0.0, 1.700578832093215E9, 0.0, 2023-11-21 10:00:32.093
96.0, -1564.5774083825838, -1459.0101193201685, -3031.07536209528, 1143.0905631888586, 3181.3684918127647, 3449.6341287653604, 293.0537215535309, -4397.504555881566, 0.04, -0.096, 0.976, 192.0, 0.0, 0.0, 0.0, 0.0, 0.0, 0.0, 0.0, 0.0, 0.0, 1.700578832097179E9, 0.0, 2023-11-21 10:00:32.097
97.0, -1560.1964664693435, -1456.1043925409786, -3025.845053892738, 1143.649356800241, 3181.3908435572203, 3451.0199369215893, 292.986666320165, -4399.851489049374, 0.04, -0.096, 0.976, 192.0, 0.0, 0.0, 0.0, 0.0, 0.0, 0.0, 0.0, 0.0, 0.0, 1.700578832102222E9, 0.0, 2023-11-21 10:00:32.102
98.0, -1560.732908336271, -1453.0422035506015, -3018.044295077836, 1146.7338975350735, 3183.6930732361166, 3452.15987588881, 288.0916342844527, -4409.3509804428795, 0.04, -0.096, 0.976, 192.0, 0.0, 0.0, 0.0, 0.0, 0.0, 0.0, 0.0, 0.0, 0.0, 1.700578832106197E9, 0.0, 2023-11-21 10:00:32.106
99.0, -1565.315015949609, -1446.2249214917329, -3017.9101846111043, 1149.170237680702, 3189.035140160935, 3453.031593922567, 286.9963988061427, -4407.495785653089, 0.04, -0.096, 0.976, 192.0, 0.0, 0.0, 0.0, 0.0, 0.0, 0.0, 0.0, 0.0, 0.0, 1.700578832109207E9, 0.0, 2023-11-21 10:00:32.109
100.0, -1556.731946078771, -1436.6136713759508, -3009.148300784624, 1155.6075400838304, 3194.3548553412984, 3459.155971903321, 291.1091197859192, -4399.650323349277, 0.04, -0.096, 0.976, 192.0, 0.0, 0.0, 0.0, 0.0, 0.0, 0.0, 0.0, 0.0, 0.0, 1.700578832113215E9, 0.0, 2023-11-21 10:00:32.113
101.0, -1562.9904345262569, -1439.6982121107833, -3010.6682194075847, 1156.2110371841238, 3187.5599250268847, 3456.317300357497, 287.62224765089127, -4401.505518139067, 0.04, -0.096, 0.976, 192.0, 0.0, 0.0, 0.0, 0.0, 0.0, 0.0, 0.0, 0.0, 0.0, 1.700578832117215E9, 0.0, 2023-11-21 10:00:32.117
102.0, -1563.437469415363, -1447.3872122034088, -3025.7779986593723, 1150.6678045592075, 3184.9000674367035, 3454.506809056617, 288.404558706827, -4405.528832141022, 0.04, -0.096, 0.976, 192.0, 0.0, 0.0, 0.0, 0.0, 0.0, 0.0, 0.0, 0.0, 0.0, 1.700578832121244E9, 0.0, 2023-11-21 10:00:32.121
103.0, -1551.9039692764247, -1440.5699301445402, -3011.830510119261, 1157.7309558070847, 3191.270314606466, 3459.021861436589, 293.18783202026276, -4401.214945461148, 0.04, -0.096, 0.976, 192.0, 0.0, 0.0, 0.0, 0.0, 0.0, 0.0, 0.0, 0.0, 0.0, 1.700578832126233E9, 0.0, 2023-11-21 10:00:32.126
104.0, -1541.1751319378773, -1432.545653885085, -3002.085149536747, 1162.3801186537885, 3193.2819716074437, 3458.5077713141172, 294.50658494312586, -4394.554125613467, 0.046, -0.10200000000000001, 0.98, 192.0, 1.0, 112.0, 252.0, 208.0, 30.0, 160.0, 0.0, 0.0, 0.0, 1.700578832130256E9, 0.0, 2023-11-21 10:00:32.130
105.0, -1557.2683879456984, -1447.1413430144005, -3020.078303823269, 1159.4073366412326, 3192.7455297405163, 3460.5641318040052, 294.43952970975994, -4399.471509393634, 0.046, -0.10200000000000001, 0.98, 192.0, 0.0, 0.0, 0.0, 0.0, 0.0, 0.0, 0.0, 0.0, 0.0, 1.700578832134313E9, 0.0, 2023-11-21 10:00:32.134
106.0, -1566.8349345725699, -1458.540732686607, -3030.5389202283527, 1155.3393191503667, 3189.3480645833097, 3460.4747248261842, 293.2325355091734, -4397.795128559485, 0.046, -0.10200000000000001, 0.98, 192.0, 0.0, 0.0, 0.0, 0.0, 0.0, 0.0, 0.0, 0.0, 0.0, 1.70057883213726E9, 0.0, 2023-11-21 10:00:32.137
107.0, -1553.088611732556, -1438.021831276635, -3011.6516961636185, 1161.03901398647, 3192.4326053181417, 3463.603969049927, 296.7641111331119, -4393.257724435059, 0.046, -0.10200000000000001, 0.98, 192.0, 0.0, 0.0, 0.0, 0.0, 0.0, 0.0, 0.0, 0.0, 0.0, 1.70057883214127E9, 0.0, 2023-11-21 10:00:32.141
108.0, -1565.7620508387151, -1446.4707906807412, -3022.0899608242466, 1151.4054121262327, 3184.497736036508, 3460.3406143594525, 296.07120705499733, -4400.969076272139, 0.046, -0.10200000000000001, 0.98, 192.0, 0.0, 0.0, 0.0, 0.0, 0.0, 0.0, 0.0, 0.0, 0.0, 1.7005788321453E9, 0.0, 2023-11-21 10:00:32.145
109.0, -1562.6104548705168, -1452.4387064503082, -3027.3426207712437, 1153.618234827308, 3187.9622564270803, 3462.9110649718127, 298.7087129007236, -4398.1974599596815, 0.046, -0.10200000000000001, 0.98, 192.0, 0.0, 0.0, 0.0, 0.0, 0.0, 0.0, 0.0, 0.0, 0.0, 1.700578832149291E9, 0.0, 2023-11-21 10:00:32.149
110.0, -1560.8223153140923, -1445.0179272911464, -3017.731370655462, 1162.7377465650734, 3194.578372785851, 3464.520390572595, 297.23349776667334, -4395.5376023695, 0.046, -0.10200000000000001, 0.98, 192.0, 0.0, 0.0, 0.0, 0.0, 0.0, 0.0, 0.0, 0.0, 0.0, 1.700578832153297E9, 0.0, 2023-11-21 10:00:32.153
111.0, -1557.670719345894, -1441.9110348118586, -3022.268774779889, 1154.4228976276993, 3187.783442471438, 3459.4465445812402, 295.11008204341914, -4393.72711106862, 0.046, -0.10200000000000001, 0.98, 192.0, 0.0, 0.0, 0.0, 0.0, 0.0, 0.0, 0.0, 0.0, 0.0, 1.700578832158298E9, 0.0, 2023-11-21 10:00:32.158
112.0, -1551.7922105541481, -1443.9673953017468, -3024.3921905031434, 1148.3208713914003, 3184.229515103044, 3461.1452771598433, 297.63582916686886, -4390.9778465006175, 0.046, -0.10200000000000001, 0.98, 192.0, 0.0, 0.0, 0.0, 0.0, 0.0, 0.0, 0.0, 0.0, 0.0, 1.700578832162325E9, 0.0, 2023-11-21 10:00:32.162
113.0, -1559.6823763468715, -1453.3998314618864, -3023.542824213842, 1153.75234529404, 3186.2188203595665, 3461.3017393710306, 296.45118671073755, -4399.069177993439, 0.046, -0.10200000000000001, 0.98, 192.0, 0.0, 0.0, 0.0, 0.0, 0.0, 0.0, 0.0, 0.0, 0.0, 1.70057883216536E9, 0.0, 2023-11-21 10:00:32.165
114.0, -1553.312129177109, -1445.219092991244, -3016.9043561106155, 1155.7416505505623, 3187.8728494492593, 3464.8780184838797, 299.0216373230979, -4397.482204137112, 0.046, -0.10200000000000001, 0.98, 192.0, 0.0, 0.0, 0.0, 0.0, 0.0, 0.0, 0.0, 0.0, 0.0, 1.700578832169331E9, 0.0, 2023-11-21 10:00:32.169
115.0, -1551.9039692764247, -1438.5359213991073, -3006.086111794247, 1162.1789529536907, 3192.1867361291334, 3470.421251108796, 306.15184380434084, -4389.346169155379, 0.046, -0.1, 0.972, 192.0, 1.0, 112.0, 252.0, 224.0, 30.0, 96.0, 0.0, 0.0, 0.0, 1.700578832173347E9, 0.0, 2023-11-21 10:00:32.173
116.0, -1558.9671205243017, -1444.6826511243166, -3011.5175856968863, 1152.9253307491936, 3182.173154613156, 3460.385317848363, 301.9497158467431, -4394.1517942132705, 0.046, -0.1, 0.972, 192.0, 0.0, 0.0, 0.0, 0.0, 0.0, 0.0, 0.0, 0.0, 0.0, 1.700578832177362E9, 0.0, 2023-11-21 10:00:32.177
117.0, -1568.600722384539, -1445.4202586913418, -3013.9986293314255, 1148.0973539468473, 3174.998244643002, 3451.735192744159, 297.3676082334052, -4403.383064673312, 0.046, -0.1, 0.972, 192.0, 0.0, 0.0, 0.0, 0.0, 0.0, 0.0, 0.0, 0.0, 0.0, 1.700578832181352E9, 0.0, 2023-11-21 10:00:32.181
118.0, -1559.7717833246927, -1443.9450435572915, -3015.4514927210207, 1154.9369877501713, 3184.654198247695, 3460.4076695928184, 302.8437856249554, -4401.550221627977, 0.046, -0.1, 0.972, 192.0, 0.0, 0.0, 0.0, 0.0, 0.0, 0.0, 0.0, 0.0, 0.0, 1.700578832185367E9, 0.0, 2023-11-21 10:00:32.185
119.0, -1547.9700622522905, -1454.450363451286, -3031.4553417510206, 1147.6056155688304, 3182.9554656690916, 3459.4018410923295, 301.10034955744146, -4397.72807332612, 0.046, -0.1, 0.972, 192.0, 0.0, 0.0, 0.0, 0.0, 0.0, 0.0, 0.0, 0.0, 0.0, 1.700578832189371E9, 0.0, 2023-11-21 10:00:32.189
120.0, -1552.7756873101816, -1451.0976017829898, -3026.0015161039255, 1149.5725690808974, 3183.3354453248317, 3459.223027136687, 297.32290474449456, -4399.538564627, 0.046, -0.1, 0.972, 192.0, 0.0, 0.0, 0.0, 0.0, 0.0, 0.0, 0.0, 0.0, 0.0, 1.700578832192376E9, 0.0, 2023-11-21 10:00:32.192
121.0, -1553.8485710440364, -1446.1802180028224, -3017.463149721998, 1149.9972522255484, 3184.6094947587844, 3458.865399225402, 296.47353845519285, -4407.696951353187, 0.046, -0.1, 0.972, 192.0, 0.0, 0.0, 0.0, 0.0, 0.0, 0.0, 0.0, 0.0, 0.0, 1.700578832197392E9, 0.0, 2023-11-21 10:00:32.197
122.0, -1550.2946436756426, -1445.509665669163, -3015.697361910029, 1149.3490516363445, 3186.5988000153066, 3459.0665649254997, 297.3899599778605, -4404.724169340631, 0.046, -0.1, 0.972, 192.0, 0.0, 0.0, 0.0, 0.0, 0.0, 0.0, 0.0, 0.0, 0.0, 1.700578832201465E9, 0.0, 2023-11-21 10:00:32.201
123.0, -1550.987547753757, -1449.6894418823056, -3022.827568391272, 1146.7786010239843, 3186.48704129303, 3461.3017393710306, 297.1887942777627, -4399.471509393634, 0.046, -0.1, 0.972, 192.0, 0.0, 0.0, 0.0, 0.0, 0.0, 0.0, 0.0, 0.0, 0.0, 1.700578832205415E9, 0.0, 2023-11-21 10:00:32.205
124.0, -1546.6736610738828, -1444.4814854242188, -3019.363048000699, 1147.046821957448, 3187.8281459603486, 3463.089878927455, 296.89822159984374, -4395.49289888059, 0.046, -0.1, 0.972, 192.0, 0.0, 0.0, 0.0, 0.0, 0.0, 0.0, 0.0, 0.0, 0.0, 1.700578832209426E9, 0.0, 2023-11-21 10:00:32.209
125.0, -1549.6240913419833, -1438.1335899989117, -3009.0365420623475, 1150.6454528147524, 3192.4549570625973, 3464.833314994969, 298.4628437117152, -4395.045863991483, 0.048, -0.098, 0.976, 192.0, 1.0, 128.0, 252.0, 240.0, 30.0, 128.0, 0.0, 0.0, 0.0, 1.700578832213431E9, 0.0, 2023-11-21 10:00:32.213
126.0, -1563.8174490711033, -1441.3075377115654, -3003.4933094374314, 1150.6678045592075, 3192.365550084776, 3461.5923120489497, 295.84768961044426, -4405.461776907656, 0.048, -0.098, 0.976, 192.0, 0.0, 0.0, 0.0, 0.0, 0.0, 0.0, 0.0, 0.0, 0.0, 1.70057883221743E9, 0.0, 2023-11-21 10:00:32.217
127.0, -1560.9340740363687, -1439.9217295553362, -3008.567155428786, 1152.1430196932579, 3193.1478611407115, 3463.0675271829996, 299.7145414012124, -4401.550221627977, 0.048, -0.098, 0.976, 192.0, 0.0, 0.0, 0.0, 0.0, 0.0, 0.0, 0.0, 0.0, 0.0, 1.70057883222043E9, 0.0, 2023-11-21 10:00:32.220
128.0, -1560.7776118251816, -1447.5213226701408, -3021.1958910460344, 1146.912711490716, 3186.755262226494, 3456.5855212909605, 297.1217390443968, -4404.746521085086, 0.048, -0.098, 0.976, 192.0, 0.0, 0.0, 0.0, 0.0, 0.0, 0.0, 0.0, 0.0, 0.0, 1.70057883222545E9, 0.0, 2023-11-21 10:00:32.225
129.0, -1559.9505972803352, -1450.2705872381434, -3018.5136817113976, 1146.8456562573501, 3182.173154613156, 3450.0811636544663, 292.7184453867013, -4408.1216344978375, 0.048, -0.098, 0.976, 192.0, 0.0, 0.0, 0.0, 0.0, 0.0, 0.0, 0.0, 0.0, 0.0, 1.700578832229458E9, 0.0, 2023-11-21 10:00:32.229
130.0, -1549.1770564528772, -1441.6875173673056, -3012.6575246641073, 1149.1925894251574, 3186.062358148379, 3454.998547434634, 297.56877393350294, -4399.829137304919, 0.048, -0.098, 0.976, 192.0, 0.0, 0.0, 0.0, 0.0, 0.0, 0.0, 0.0, 0.0, 0.0, 1.700578832233503E9, 0.0, 2023-11-21 10:00:32.233
131.0, -1549.8029052976258, -1444.6155958909508, -3023.498120724931, 1148.8573132583276, 3190.5327070394405, 3462.933416716268, 299.91570710131015, -4396.856355292363, 0.048, -0.098, 0.976, 192.0, 0.0, 0.0, 0.0, 0.0, 0.0, 0.0, 0.0, 0.0, 0.0, 1.700578832237471E9, 0.0, 2023-11-21 10:00:32.237
132.0, -1555.055565244623, -1447.2083982477664, -3025.3309637702664, 1147.8291330133836, 3189.459823305586, 3466.6885097847594, 300.9438873462543, -4396.006989003061, 0.048, -0.098, 0.976, 192.0, 0.0, 0.0, 0.0, 0.0, 0.0, 0.0, 0.0, 0.0, 0.0, 1.700578832241476E9, 0.0, 2023-11-21 10:00:32.241
133.0, -1550.1605332089107, -1443.7438778571939, -3017.954888100015, 1152.3441853933557, 3186.174116870656, 3454.5515125455277, 296.07120705499733, -4393.280076179513, 0.048, -0.098, 0.976, 192.0, 0.0, 0.0, 0.0, 0.0, 0.0, 0.0, 0.0, 0.0, 0.0, 1.700578832245491E9, 0.0, 2023-11-21 10:00:32.245
134.0, -1560.3976321694413, -1443.2297877347216, -3013.104559553213, 1156.5463133509534, 3188.63280876074, 3455.3338236014633, 292.4502244532376, -4401.6619803502535, 0.048, -0.098, 0.976, 192.0, 0.0, 0.0, 0.0, 0.0, 0.0, 0.0, 0.0, 0.0, 0.0, 1.700578832248496E9, 0.0, 2023-11-21 10:00:32.248
135.0, -1567.661949117416, -1450.3376424715093, -3017.373742744177, 1149.1031824473362, 3182.48607903553, 3453.433925322762, 289.5221459295924, -4407.741654842098, 0.044, -0.096, 0.982, 192.0, 1.0, 96.0, 253.0, 0.0, 30.0, 176.0, 0.0, 0.0, 0.0, 1.700578832253517E9, 0.0, 2023-11-21 10:00:32.253
136.0, -1557.894236790447, -1442.447476678786, -3010.601164174219, 1152.7688685380065, 3186.330579081843, 3456.049079424033, 292.00318956413145, -4401.572573372433, 0.044, -0.096, 0.982, 192.0, 0.0, 0.0, 0.0, 0.0, 0.0, 0.0, 0.0, 0.0, 0.0, 1.700578832257502E9, 0.0, 2023-11-21 10:00:32.257
137.0, -1551.7475070652374, -1431.1374939844006, -3004.1638617710905, 1161.5978075978528, 3191.940866940125, 3462.128753915877, 297.501718700137, -4394.285904680002, 0.044, -0.096, 0.982, 192.0, 0.0, 0.0, 0.0, 0.0, 0.0, 0.0, 0.0, 0.0, 0.0, 1.700578832261525E9, 0.0, 2023-11-21 10:00:32.261
138.0, -1559.637672857961, -1444.57089240204, -3018.8489578782273, 1154.4899528610651, 3184.9224191811586, 3457.390184091352, 293.2325355091734, -4397.169279714737, 0.044, -0.096, 0.982, 192.0, 0.0, 0.0, 0.0, 0.0, 0.0, 0.0, 0.0, 0.0, 0.0, 1.70057883226554E9, 0.0, 2023-11-21 10:00:32.265
139.0, -1562.6551583594273, -1453.28807273961, -3029.8907196391488, 1147.046821957448, 3182.3072650798877, 3453.456277067218, 292.5843349199695, -4398.420977404235, 0.044, -0.096, 0.982, 192.0, 0.0, 0.0, 0.0, 0.0, 0.0, 0.0, 0.0, 0.0, 0.0, 1.700578832269543E9, 0.0, 2023-11-21 10:00:32.269
140.0, -1563.2363037152654, -1443.9673953017468, -3019.430103234065, 1149.013775469515, 3182.620189502262, 3454.2609398676086, 293.9477913317432, -4396.29756168098, 0.044, -0.096, 0.982, 192.0, 0.0, 0.0, 0.0, 0.0, 0.0, 0.0, 0.0, 0.0, 0.0, 1.700578832273555E9, 0.0, 2023-11-21 10:00:32.273
141.0, -1549.3558704085196, -1425.0801712370123, -2993.21150698799, 1162.0224907425036, 3189.303361094399, 3460.0500416815335, 300.4297972237822, -4390.709625567153, 0.044, -0.096, 0.982, 192.0, 0.0, 0.0, 0.0, 0.0, 0.0, 0.0, 0.0, 0.0, 0.0, 1.700578832276566E9, 0.0, 2023-11-21 10:00:32.276
142.0, -1551.5463413651398, -1428.4329329053085, -2997.7489111124173, 1161.9554355091377, 3189.5492302834073, 3461.480553326673, 302.6202681804023, -4390.575515100421, 0.044, -0.096, 0.982, 192.0, 0.0, 0.0, 0.0, 0.0, 0.0, 0.0, 0.0, 0.0, 0.0, 1.700578832280563E9, 0.0, 2023-11-21 10:00:32.280
143.0, -1558.1177542350001, -1446.515494169652, -3025.6662399370957, 1151.785391781973, 3185.0565296478903, 3460.1170969148993, 300.4521489682375, -4395.358788413857, 0.044, -0.096, 0.982, 192.0, 0.0, 0.0, 0.0, 0.0, 0.0, 0.0, 0.0, 0.0, 0.0, 1.700578832285623E9, 0.0, 2023-11-21 10:00:32.285
144.0, -1556.508428634218, -1443.6768226238278, -3021.4641119794983, 1155.6298918282857, 3188.9904366720248, 3463.0451754385444, 302.9555443472319, -4392.318951167936, 0.044, -0.096, 0.982, 192.0, 0.0, 0.0, 0.0, 0.0, 0.0, 0.0, 0.0, 0.0, 0.0, 1.700578832289606E9, 0.0, 2023-11-21 10:00:32.289
145.0, -1552.5745216100838, -1441.2181307337441, -3011.3164199967887, 1165.6434733442634, 3197.3052856093987, 3470.1306784308767, 306.0624368265196, -4390.083776722405, 0.046, -0.096, 0.982, 192.0, 1.0, 112.0, 253.0, 0.0, 30.0, 176.0, 0.0, 0.0, 0.0, 1.700578832293607E9, 0.0, 2023-11-21 10:00:32.293
146.0, -1551.5463413651398, -1447.7001366257832, -3017.6419636776404, 1155.4734296170986, 3186.040006403924, 3464.5650940615055, 299.1557477898297, -4393.861221535351, 0.046, -0.096, 0.982, 192.0, 0.0, 0.0, 0.0, 0.0, 0.0, 0.0, 0.0, 0.0, 0.0, 1.700578832297672E9, 0.0, 2023-11-21 10:00:32.297
147.0, -1564.1080217490223, -1444.0120987906575, -3010.243536262934, 1152.6571098157299, 3183.6930732361166, 3463.0228236940893, 296.56294543301414, -4403.137195484304, 0.046, -0.096, 0.982, 192.0, 0.0, 0.0, 0.0, 0.0, 0.0, 0.0, 0.0, 0.0, 0.0, 1.700578832300729E9, 0.0, 2023-11-21 10:00:32.300
148.0, -1561.9399025368575, -1433.3056131965654, -3005.1249867826687, 1155.0487464724479, 3187.3140558378764, 3464.609797550416, 296.2500210106398, -4402.958381528661, 0.046, -0.096, 0.982, 192.0, 0.0, 0.0, 0.0, 0.0, 0.0, 0.0, 0.0, 0.0, 0.0, 1.700578832304692E9, 0.0, 2023-11-21 10:00:32.304
