%OpenBCI Raw EXG Data
%Number of channels = 8
%Sample Rate = 250 Hz
%Board = OpenBCI_GUI$BoardCytonSerial
Sample Index, EXG Channel 0, EXG Channel 1, EXG Channel 2, EXG Channel 3, EXG Channel 4, EXG Channel 5, EXG Channel 6, EXG Channel 7, Accel Channel 0, Accel Channel 1, Accel Channel 2, Other, Other, Other, Other, Other, Other, Other, Analog Channel 0, Analog Channel 1, Analog Channel 2, Timestamp, Other, Timestamp (Formatted)
183.0, -1912.169386407064, -1580.022463801201, -3178.038081888924, 1126.8408449698502, 3363.579912612428, 3210.805739260404, 15.020372273966347, -4728.533891264665, 0.0, 0.0, 0.0, 192.0, 0.0, 0.0, 0.0, 0.0, 0.0, 0.0, 0.0, 0.0, 0.0, 1.700578810434575E9, 0.0, 2023-11-21 10:00:10.434
184.0, -1903.0498746692986, -1564.085670004567, -3159.9555206245805, 1135.200397396135, 3369.413717915263, 3218.226518419566, 15.847386818812707, -4729.204443598323, 0.0, 0.0, 0.0, 192.0, 0.0, 0.0, 0.0, 0.0, 0.0, 0.0, 0.0, 0.0, 0.0, 1.700578810434585E9, 0.0, 2023-11-21 10:00:10.434
185.0, -1903.072226413754, -1562.0740130035895, -3157.2286078010334, 1133.881644473272, 3369.19020047071, 3221.0204864764796, 24.005773544999784, -4732.467798288799, 0.0, 0.0, 0.0, 192.0, 0.0, 0.0, 0.0, 0.0, 0.0, 0.0, 0.0, 0.0, 0.0, 1.700578810434594E9, 0.0, 2023-11-21 10:00:10.434
0.0, 0.0, 0.0, 0.0, 0.0, 0.0, 0.0, 0.0, 0.0, -0.058, 0.11, 0.9520000000000001, 192.0, 254.0, 48.0, 3.0, 112.0, 29.0, 192.0, 0.0, 0.0, 0.0, 1.700578810528399E9, 0.0, 2023-11-21 10:00:10.528
1.0, -1660.1534676734768, -1482.1665265758666, -3051.571911760797, 1050.9119690551722, 3187.0905383933236, 3378.846154075403, 206.21719434466297, -4500.635504798353, -0.058, 0.11, 0.9520000000000001, 192.0, 0.0, 0.0, 0.0, 0.0, 0.0, 0.0, 0.0, 0.0, 0.0, 1.700578810545436E9, 0.0, 2023-11-21 10:00:10.545
2.0, -1654.5431798151947, -1480.668959697361, -3064.982958433981, 1044.8769980522393, 3191.359721584287, 3379.2931889645088, 208.47472053464898, -4498.579144308465, -0.058, 0.11, 0.9520000000000001, 192.0, 0.0, 0.0, 0.0, 0.0, 0.0, 0.0, 0.0, 0.0, 0.0, 1.700578810549441E9, 0.0, 2023-11-21 10:00:10.549
3.0, -1653.1573716589658, -1474.2987125275986, -3053.203589106034, 1050.9343207996276, 3197.7076170095943, 3382.8918198218134, 211.04517114700928, -4494.086443672949, -0.058, 0.11, 0.9520000000000001, 192.0, 0.0, 0.0, 0.0, 0.0, 0.0, 0.0, 0.0, 0.0, 0.0, 1.700578810552443E9, 0.0, 2023-11-21 10:00:10.552
4.0, -1661.405165362974, -1472.3094072710762, -3048.8449989372493, 1050.1520097436917, 3200.143957155223, 3382.6906541217154, 209.65936299078024, -4496.567487307488, -0.058, 0.11, 0.9520000000000001, 192.0, 0.0, 0.0, 0.0, 0.0, 0.0, 0.0, 0.0, 0.0, 0.0, 1.70057881055746E9, 0.0, 2023-11-21 10:00:10.557
5.0, -1653.604406548072, -1462.966378088758, -3044.240539579456, 1046.3522131862894, 3198.4452245766192, 3382.4671366771627, 207.40183680079423, -4492.141841905337, -0.058, 0.11, 0.9520000000000001, 192.0, 0.0, 0.0, 0.0, 0.0, 0.0, 0.0, 0.0, 0.0, 0.0, 1.700578810560459E9, 0.0, 2023-11-21 10:00:10.560
6.0, -1662.5227525857392, -1472.9129043713695, -3054.276472839889, 1045.2346259635242, 3192.589067529329, 3379.896686064802, 205.18901409971883, -4495.673417529276, -0.058, 0.11, 0.9520000000000001, 192.0, 0.0, 0.0, 0.0, 0.0, 0.0, 0.0, 0.0, 0.0, 0.0, 1.700578810563461E9, 0.0, 2023-11-21 10:00:10.563
7.0, -1660.4440403513959, -1472.4882212267187, -3051.907187927626, 1047.9615387870717, 3195.2042216306, 3381.1707354987548, 208.8323484459339, -4493.393539594834, -0.058, 0.11, 0.9520000000000001, 192.0, 0.0, 0.0, 0.0, 0.0, 0.0, 0.0, 0.0, 0.0, 0.0, 1.700578810568487E9, 0.0, 2023-11-21 10:00:10.568
8.0, -1663.4391741084069, -1468.442555480308, -3039.0996383547354, 1053.8400475788173, 3202.8261664898596, 3388.0103693020787, 210.82165370245622, -4498.243868141636, -0.026000000000000002, 0.134, 0.9560000000000001, 192.0, 255.0, 48.0, 4.0, 48.0, 29.0, 224.0, 0.0, 0.0, 0.0, 1.700578810572479E9, 0.0, 2023-11-21 10:00:10.572
9.0, -1667.4177846214516, -1470.5883229480175, -3038.0714581097914, 1051.6719283666525, 3198.713445510083, 3385.3058082229863, 210.1063978798864, -4499.69673153123, -0.026000000000000002, 0.134, 0.9560000000000001, 192.0, 0.0, 0.0, 0.0, 0.0, 0.0, 0.0, 0.0, 0.0, 0.0, 1.700578810576491E9, 0.0, 2023-11-21 10:00:10.576
10.0, -1659.818191506647, -1470.2977502700985, -3050.1861036045675, 1050.1073062547812, 3197.685265265139, 3384.411738444774, 209.8828804353333, -4493.393539594834, -0.026000000000000002, 0.134, 0.9560000000000001, 192.0, 0.0, 0.0, 0.0, 0.0, 0.0, 0.0, 0.0, 0.0, 0.0, 1.700578810580494E9, 0.0, 2023-11-21 10:00:10.580
11.0, -1651.3245286136305, -1460.5523896875848, -3039.6137284772076, 1060.277349981946, 3206.000114202513, 3392.525421682051, 217.16954912776342, -4488.096176158926, -0.026000000000000002, 0.134, 0.9560000000000001, 192.0, 0.0, 0.0, 0.0, 0.0, 0.0, 0.0, 0.0, 0.0, 0.0, 1.700578810585504E9, 0.0, 2023-11-21 10:00:10.585
12.0, -1662.6792147969265, -1467.995520591202, -3039.7701906883945, 1060.6126261487755, 3198.422872832164, 3384.6352558893273, 207.11126412287524, -4506.134033934359, -0.026000000000000002, 0.134, 0.9560000000000001, 192.0, 0.0, 0.0, 0.0, 0.0, 0.0, 0.0, 0.0, 0.0, 0.0, 1.700578810588504E9, 0.0, 2023-11-21 10:00:10.588
13.0, -1665.7861072762141, -1470.8341921370259, -3043.011193634414, 1053.9965097900044, 3192.007922173491, 3381.394252943308, 208.67588623474674, -4505.932868234261, -0.026000000000000002, 0.134, 0.9560000000000001, 192.0, 0.0, 0.0, 0.0, 0.0, 0.0, 0.0, 0.0, 0.0, 0.0, 1.700578810591524E9, 0.0, 2023-11-21 10:00:10.591
14.0, -1659.8405432511024, -1473.6281601939393, -3055.148190873646, 1045.7487160859962, 3188.67751224965, 3379.1143750088663, 206.79833970050095, -4502.334237376957, -0.026000000000000002, 0.134, 0.9560000000000001, 192.0, 0.0, 0.0, 0.0, 0.0, 0.0, 0.0, 0.0, 0.0, 0.0, 1.70057881059652E9, 0.0, 2023-11-21 10:00:10.596
15.0, -1655.8619327380577, -1480.3560352749867, -3063.4630398110203, 1043.6700038516526, 3187.3811110712422, 3377.3038837079866, 205.50193852209313, -4501.08253968746, -0.026000000000000002, 0.134, 0.9560000000000001, 192.0, 0.0, 0.0, 0.0, 0.0, 0.0, 0.0, 0.0, 0.0, 0.0, 1.700578810600547E9, 0.0, 2023-11-21 10:00:10.600
16.0, -1667.2613224102645, -1473.9410846163137, -3053.136533872668, 1050.9566725440827, 3192.1196808957675, 3382.713005866171, 208.5194240235596, -4503.3847693663565, -0.026000000000000002, 0.134, 0.9560000000000001, 192.0, 0.0, 0.0, 0.0, 0.0, 0.0, 0.0, 0.0, 0.0, 0.0, 1.700578810604537E9, 0.0, 2023-11-21 10:00:10.604
17.0, -1659.2146944063538, -1457.736069886216, -3035.6127662197073, 1057.4163266916664, 3197.7299687540494, 3390.223192003154, 213.79443571501204, -4499.4508623422225, -0.026000000000000002, 0.134, 0.9560000000000001, 192.0, 0.0, 0.0, 0.0, 0.0, 0.0, 0.0, 0.0, 0.0, 0.0, 1.700578810608552E9, 0.0, 2023-11-21 10:00:10.608
18.0, -1656.532485071717, -1459.7477268871937, -3036.5515394868303, 1054.4435446791106, 3193.7960617299154, 3385.7975466010034, 207.55829901198138, -4498.109757674904, -0.01, 0.14, 0.9580000000000001, 192.0, 255.0, 176.0, 4.0, 96.0, 29.0, 240.0, 0.0, 0.0, 0.0, 1.700578810612552E9, 0.0, 2023-11-21 10:00:10.612
19.0, -1661.8969037409906, -1457.5572559305735, -3012.7692833863834, 1068.3910332192222, 3203.1390909122338, 3385.484622178629, 203.62439198784733, -4505.50818508961, -0.01, 0.14, 0.9580000000000001, 192.0, 0.0, 0.0, 0.0, 0.0, 0.0, 0.0, 0.0, 0.0, 0.0, 1.700578810616564E9, 0.0, 2023-11-21 10:00:10.616
20.0, -1656.9795199608232, -1458.2054565197775, -3020.4806352234646, 1064.4794779395436, 3201.01567518898, 3385.283456478531, 202.64091523181384, -4503.429472855267, -0.01, 0.14, 0.9580000000000001, 192.0, 0.0, 0.0, 0.0, 0.0, 0.0, 0.0, 0.0, 0.0, 0.0, 1.700578810619599E9, 0.0, 2023-11-21 10:00:10.619
21.0, -1660.2652263957534, -1487.4415382673192, -3066.882856712682, 1048.788553331918, 3194.779538485949, 3384.6576076337824, 204.56316525497024, -4496.589839051943, -0.01, 0.14, 0.9580000000000001, 192.0, 0.0, 0.0, 0.0, 0.0, 0.0, 0.0, 0.0, 0.0, 0.0, 1.700578810624586E9, 0.0, 2023-11-21 10:00:10.624
22.0, -1658.8794182395243, -1483.6864451988274, -3060.5126095429196, 1053.460067923077, 3195.159518141689, 3384.702311122693, 205.4348832887272, -4500.121414675881, -0.01, 0.14, 0.9580000000000001, 192.0, 0.0, 0.0, 0.0, 0.0, 0.0, 0.0, 0.0, 0.0, 0.0, 1.700578810628571E9, 0.0, 2023-11-21 10:00:10.628
23.0, -1657.6724240389376, -1468.0402240801125, -3036.1715598310902, 1057.8633615807726, 3195.159518141689, 3384.8140698449697, 206.84304318941156, -4499.808490253507, -0.01, 0.14, 0.9580000000000001, 192.0, 0.0, 0.0, 0.0, 0.0, 0.0, 0.0, 0.0, 0.0, 0.0, 1.700578810632588E9, 0.0, 2023-11-21 10:00:10.632
24.0, -1659.3264531286304, -1473.8516776384924, -3037.0879813537576, 1053.5271231564432, 3187.8728494492593, 3377.773270341548, 202.75267395409037, -4503.183603666259, -0.01, 0.14, 0.9580000000000001, 192.0, 0.0, 0.0, 0.0, 0.0, 0.0, 0.0, 0.0, 0.0, 0.0, 1.70057881063668E9, 0.0, 2023-11-21 10:00:10.636
25.0, -1649.1340576570103, -1485.8769161554476, -3056.6681094966066, 1049.1461812432028, 3190.4656518060747, 3384.1882210002213, 208.05003738999815, -4496.388673351846, -0.01, 0.14, 0.9580000000000001, 192.0, 0.0, 0.0, 0.0, 0.0, 0.0, 0.0, 0.0, 0.0, 0.0, 1.700578810640674E9, 0.0, 2023-11-21 10:00:10.640
26.0, -1657.8065345056696, -1478.0314538516348, -3054.499990284442, 1052.9683295450604, 3196.0535879199015, 3393.553601926995, 212.6321450033361, -4497.863888485896, -0.01, 0.14, 0.9580000000000001, 192.0, 0.0, 0.0, 0.0, 0.0, 0.0, 0.0, 0.0, 0.0, 0.0, 1.70057881064467E9, 0.0, 2023-11-21 10:00:10.644
27.0, -1659.2593978952646, -1473.2481805381992, -3048.1744466035902, 1053.884751067728, 3196.6570850201947, 3394.9841135721344, 213.86149094837796, -4497.260391385602, -0.01, 0.14, 0.9580000000000001, 192.0, 0.0, 0.0, 0.0, 0.0, 0.0, 0.0, 0.0, 0.0, 0.0, 1.700578810647668E9, 0.0, 2023-11-21 10:00:10.647
28.0, -1661.919255485446, -1476.6009422064951, -3045.8498651802383, 1051.2025417330913, 3193.4831373075413, 3393.3971397158075, 209.94993566869923, -4500.948429220728, -0.002, 0.134, 0.9540000000000001, 192.0, 255.0, 240.0, 4.0, 48.0, 29.0, 208.0, 0.0, 0.0, 0.0, 1.700578810651704E9, 0.0, 2023-11-21 10:00:10.651
29.0, -1660.4440403513959, -1480.378387019442, -3051.616615249707, 1051.0237277774488, 3192.1867361291334, 3392.614828659872, 204.36199955487248, -4508.212746168702, -0.002, 0.134, 0.9540000000000001, 192.0, 0.0, 0.0, 0.0, 0.0, 0.0, 0.0, 0.0, 0.0, 0.0, 1.700578810656695E9, 0.0, 2023-11-21 10:00:10.656
30.0, -1655.6831187824152, -1473.516401471663, -3052.600092005741, 1053.2365504785241, 3197.7076170095943, 3399.700331652204, 210.86635719136683, -4497.483908830155, -0.002, 0.134, 0.9540000000000001, 192.0, 0.0, 0.0, 0.0, 0.0, 0.0, 0.0, 0.0, 0.0, 0.0, 1.700578810660685E9, 0.0, 2023-11-21 10:00:10.660
31.0, -1653.5820548036165, -1472.2870555266209, -3046.7439349584506, 1056.3210912133566, 3200.658047277695, 3400.1026630523997, 213.23564210362937, -4493.170022150281, -0.002, 0.134, 0.9540000000000001, 192.0, 0.0, 0.0, 0.0, 0.0, 0.0, 0.0, 0.0, 0.0, 0.0, 1.700578810664694E9, 0.0, 2023-11-21 10:00:10.664
32.0, -1659.795839762192, -1474.321064272054, -3045.0004988909363, 1052.7001086115968, 3195.3159803528765, 3393.1065670378885, 206.86539493386687, -4499.026179197572, -0.002, 0.134, 0.9540000000000001, 192.0, 0.0, 0.0, 0.0, 0.0, 0.0, 0.0, 0.0, 0.0, 0.0, 1.700578810667694E9, 0.0, 2023-11-21 10:00:10.667
33.0, -1653.6714617814378, -1469.6271979364394, -3040.6866122110623, 1054.6894138681191, 3197.2158786315777, 3396.436976961729, 212.56508976997017, -4494.131147161859, -0.002, 0.134, 0.9540000000000001, 192.0, 0.0, 0.0, 0.0, 0.0, 0.0, 0.0, 0.0, 0.0, 0.0, 1.700578810671725E9, 0.0, 2023-11-21 10:00:10.671
34.0, -1652.7326885143148, -1473.4493462382968, -3040.597205233241, 1055.9634633020717, 3197.39469258722, 3394.6488374053047, 210.55343276899254, -4504.725874033675, -0.002, 0.134, 0.9540000000000001, 192.0, 0.0, 0.0, 0.0, 0.0, 0.0, 0.0, 0.0, 0.0, 0.0, 1.700578810675712E9, 0.0, 2023-11-21 10:00:10.675
35.0, -1661.6510345519823, -1480.3336835305315, -3047.8168186923053, 1055.7399458575185, 3198.9369629546363, 3395.5876106724277, 208.2512030900959, -4509.285629902557, -0.002, 0.134, 0.9540000000000001, 192.0, 0.0, 0.0, 0.0, 0.0, 0.0, 0.0, 0.0, 0.0, 0.0, 1.700578810679708E9, 0.0, 2023-11-21 10:00:10.679
36.0, -1657.0689269386444, -1469.3589770029757, -3037.0879813537576, 1061.8419720938173, 3203.8543467348036, 3395.520555439062, 207.46889203416015, -4510.850252014429, -0.002, 0.134, 0.9540000000000001, 192.0, 0.0, 0.0, 0.0, 0.0, 0.0, 0.0, 0.0, 0.0, 0.0, 1.700578810684719E9, 0.0, 2023-11-21 10:00:10.684
37.0, -1657.9182932279462, -1473.67286368285, -3034.4951789969423, 1055.5387801574207, 3196.142994897723, 3387.4962791796065, 201.41156928677194, -4514.873566016384, -0.002, 0.134, 0.9540000000000001, 192.0, 0.0, 0.0, 0.0, 0.0, 0.0, 0.0, 0.0, 0.0, 0.0, 1.70057881068872E9, 0.0, 2023-11-21 10:00:10.688
38.0, -1654.856104237569, -1486.5251167446515, -3054.9693769180035, 1048.1403527427142, 3194.6454280192174, 3388.636218146827, 203.31146756547304, -4507.944525235239, 0.004, 0.14200000000000002, 0.9540000000000001, 192.0, 0.0, 32.0, 4.0, 112.0, 29.0, 208.0, 0.0, 0.0, 0.0, 1.700578810692732E9, 0.0, 2023-11-21 10:00:10.692
39.0, -1655.593711804594, -1480.2666282971654, -3061.98782467697, 1048.9897190320157, 3197.238230376033, 3395.811128116981, 210.88870893582214, -4499.048530942026, 0.004, 0.14200000000000002, 0.9540000000000001, 192.0, 0.0, 0.0, 0.0, 0.0, 0.0, 0.0, 0.0, 0.0, 0.0, 1.70057881069575E9, 0.0, 2023-11-21 10:00:10.695
40.0, -1649.8716652240355, -1473.67286368285, -3047.950929159037, 1056.656367380186, 3198.9816664435466, 3395.453500205696, 210.91106068027744, -4497.215687896692, 0.004, 0.14200000000000002, 0.9540000000000001, 192.0, 0.0, 0.0, 0.0, 0.0, 0.0, 0.0, 0.0, 0.0, 0.0, 1.700578810699784E9, 0.0, 2023-11-21 10:00:10.699
41.0, -1644.9989849327785, -1478.2102678072772, -3047.593301247752, 1055.628187135242, 3197.439396076131, 3391.609000159383, 205.65840073328027, -4503.630638555364, 0.004, 0.14200000000000002, 0.9540000000000001, 192.0, 0.0, 0.0, 0.0, 0.0, 0.0, 0.0, 0.0, 0.0, 0.0, 1.700578810703709E9, 0.0, 2023-11-21 10:00:10.703
42.0, -1653.2020751478763, -1478.2102678072772, -3051.08017338278, 1055.6728906241526, 3199.5404600549296, 3392.212497259676, 203.5573367544814, -4507.251621157125, 0.004, 0.14200000000000002, 0.9540000000000001, 192.0, 0.0, 0.0, 0.0, 0.0, 0.0, 0.0, 0.0, 0.0, 0.0, 1.700578810707766E9, 0.0, 2023-11-21 10:00:10.707
43.0, -1657.4936100832952, -1470.253046781188, -3037.8032371763275, 1058.6009691477977, 3200.4121780886867, 3394.537078683028, 207.08891237841993, -4501.79779551003, 0.004, 0.14200000000000002, 0.9540000000000001, 192.0, 0.0, 0.0, 0.0, 0.0, 0.0, 0.0, 0.0, 0.0, 0.0, 1.700578810712771E9, 0.0, 2023-11-21 10:00:10.712
44.0, -1660.3993368624851, -1460.507686198674, -3032.751742929428, 1058.176286003147, 3196.2771053644547, 3391.7654623705703, 207.13361586733055, -4498.534440819555, 0.004, 0.14200000000000002, 0.9540000000000001, 192.0, 0.0, 0.0, 0.0, 0.0, 0.0, 0.0, 0.0, 0.0, 0.0, 1.700578810716796E9, 0.0, 2023-11-21 10:00:10.716
45.0, -1665.2496654092868, -1479.4172620078639, -3047.8615221812156, 1048.8779603097391, 3189.0798436498458, 3385.6634361342713, 200.3163338084619, -4503.854155999918, 0.004, 0.14200000000000002, 0.9540000000000001, 192.0, 0.0, 0.0, 0.0, 0.0, 0.0, 0.0, 0.0, 0.0, 0.0, 1.700578810720792E9, 0.0, 2023-11-21 10:00:10.720
46.0, -1667.820116021647, -1478.7243579297494, -3053.6729757395956, 1049.235588221024, 3189.7727477279604, 3385.1493460117995, 199.62342973034737, -4509.732664791663, 0.004, 0.14200000000000002, 0.9540000000000001, 192.0, 0.0, 0.0, 0.0, 0.0, 0.0, 0.0, 0.0, 0.0, 0.0, 1.700578810723831E9, 0.0, 2023-11-21 10:00:10.723
47.0, -1655.8172292491472, -1480.6019044639952, -3055.3493565737435, 1054.1306202567364, 3192.879640207248, 3389.7314536251374, 204.58551699942555, -4501.596629809932, 0.004, 0.14200000000000002, 0.9540000000000001, 192.0, 0.0, 0.0, 0.0, 0.0, 0.0, 0.0, 0.0, 0.0, 0.0, 1.70057881072783E9, 0.0, 2023-11-21 10:00:10.727
48.0, -1650.8774937245244, -1466.1626775458667, -3037.825588920783, 1058.3103964698787, 3200.434529833142, 3394.3582647273856, 210.01699090206517, -4497.148632663326, 0.004, 0.14, 0.9540000000000001, 192.0, 0.0, 32.0, 4.0, 96.0, 29.0, 208.0, 0.0, 0.0, 0.0, 1.700578810731872E9, 0.0, 2023-11-21 10:00:10.731
49.0, -1660.5781508181276, -1474.9022096278918, -3044.2628913239114, 1053.1024400117922, 3199.7639774994827, 3386.356340212386, 204.02672338804288, -4504.74822577813, 0.004, 0.14, 0.9540000000000001, 192.0, 0.0, 0.0, 0.0, 0.0, 0.0, 0.0, 0.0, 0.0, 0.0, 1.700578810735871E9, 0.0, 2023-11-21 10:00:10.735
50.0, -1662.6568630524712, -1492.2918668141208, -3061.7643072324167, 1050.174361488147, 3196.813547231382, 3383.316502966464, 201.05394137548703, -4507.922173490783, 0.004, 0.14, 0.9540000000000001, 192.0, 0.0, 0.0, 0.0, 0.0, 0.0, 0.0, 0.0, 0.0, 0.0, 1.700578810739862E9, 0.0, 2023-11-21 10:00:10.739
51.0, -1649.9387204574014, -1474.0751950830454, -3045.067554124302, 1056.5446086579095, 3202.9602769565913, 3394.380616471841, 214.12971188184167, -4494.220554139681, 0.004, 0.14, 0.9540000000000001, 192.0, 0.0, 0.0, 0.0, 0.0, 0.0, 0.0, 0.0, 0.0, 0.0, 1.700578810744856E9, 0.0, 2023-11-21 10:00:10.744
52.0, -1652.4868193253064, -1480.221924808255, -3049.537903015364, 1053.30360571189, 3200.3451228553204, 3394.2018025161988, 213.6826769927355, -4494.5111268176, 0.004, 0.14, 0.9540000000000001, 192.0, 0.0, 0.0, 0.0, 0.0, 0.0, 0.0, 0.0, 0.0, 0.0, 1.700578810748869E9, 0.0, 2023-11-21 10:00:10.748
53.0, -1663.238008408309, -1488.1344423454336, -3053.628272250685, 1047.916835298161, 3192.3431983403207, 3386.713968123671, 201.90330766478868, -4502.468347843689, 0.004, 0.14, 0.9540000000000001, 192.0, 0.0, 0.0, 0.0, 0.0, 0.0, 0.0, 0.0, 0.0, 0.0, 1.700578810751867E9, 0.0, 2023-11-21 10:00:10.751
54.0, -1657.627720550027, -1472.220000293255, -3047.1239146141907, 1049.727326599041, 3195.271276863966, 3391.452537948196, 201.36686579786132, -4500.993132709638, 0.004, 0.14, 0.9540000000000001, 192.0, 0.0, 0.0, 0.0, 0.0, 0.0, 0.0, 0.0, 0.0, 0.0, 1.700578810755881E9, 0.0, 2023-11-21 10:00:10.755
55.0, -1649.692851268393, -1465.223904278744, -3051.7507257164393, 1048.721498098552, 3196.232401875544, 3394.2465060051095, 205.50193852209313, -4496.299266374024, 0.004, 0.14, 0.9540000000000001, 192.0, 0.0, 0.0, 0.0, 0.0, 0.0, 0.0, 0.0, 0.0, 0.0, 1.700578810759892E9, 0.0, 2023-11-21 10:00:10.759
56.0, -1649.9163687129462, -1466.6544159238836, -3047.2356733364672, 1055.851704579795, 3199.6298670327506, 3394.067692049467, 208.05003738999815, -4492.633580283354, 0.004, 0.14, 0.9540000000000001, 192.0, 0.0, 0.0, 0.0, 0.0, 0.0, 0.0, 0.0, 0.0, 0.0, 1.700578810763893E9, 0.0, 2023-11-21 10:00:10.763
57.0, -1648.1058774120663, -1470.0071775921797, -3050.923711171593, 1053.0353847784263, 3196.6794367646503, 3389.7985088585033, 210.7545984690903, -4488.274990114569, 0.004, 0.14, 0.9540000000000001, 192.0, 0.0, 0.0, 0.0, 0.0, 0.0, 0.0, 0.0, 0.0, 0.0, 1.700578810767886E9, 0.0, 2023-11-21 10:00:10.767
58.0, -1651.7045082693708, -1478.2773230406433, -3059.5514845313414, 1041.9042160396834, 3191.6726460066616, 3386.021064045556, 207.6477059898026, -4493.505298317111, 0.002, 0.14, 0.9560000000000001, 192.0, 0.0, 16.0, 4.0, 96.0, 29.0, 224.0, 0.0, 0.0, 0.0, 1.700578810772847E9, 0.0, 2023-11-21 10:00:10.772
59.0, -1656.890112983002, -1466.8555816239814, -3036.216263320001, 1055.0023382904933, 3201.999151945013, 3393.6206571603607, 207.6700577342579, -4497.662722785798, 0.002, 0.14, 0.9560000000000001, 192.0, 0.0, 0.0, 0.0, 0.0, 0.0, 0.0, 0.0, 0.0, 0.0, 1.700578810776886E9, 0.0, 2023-11-21 10:00:10.776
60.0, -1656.7112990273595, -1471.124764814945, -3045.067554124302, 1048.2521114649905, 3195.0477594194126, 3390.3349507254306, 203.62439198784733, -4498.780310008563, 0.002, 0.14, 0.9560000000000001, 192.0, 0.0, 0.0, 0.0, 0.0, 0.0, 0.0, 0.0, 0.0, 0.0, 1.700578810779873E9, 0.0, 2023-11-21 10:00:10.779
61.0, -1658.4547350948735, -1487.4191865228638, -3068.201609635545, 1035.243396192002, 3189.1245471387565, 3390.1784885142433, 205.7701594555568, -4496.701597774219, 0.002, 0.14, 0.9560000000000001, 192.0, 0.0, 0.0, 0.0, 0.0, 0.0, 0.0, 0.0, 0.0, 0.0, 1.700578810783889E9, 0.0, 2023-11-21 10:00:10.783
62.0, -1641.8026854756697, -1471.1918200483108, -3046.2969000693442, 1050.3084719548788, 3197.77467224296, 3397.420453717763, 210.93341242473275, -4494.086443672949, 0.002, 0.14, 0.9560000000000001, 192.0, 0.0, 0.0, 0.0, 0.0, 0.0, 0.0, 0.0, 0.0, 0.0, 1.700578810787884E9, 0.0, 2023-11-21 10:00:10.787
63.0, -1649.692851268393, -1476.8244596510483, -3039.9043011551266, 1053.30360571189, 3198.0875966653343, 3396.5934391729165, 206.46306353367135, -4496.902763474317, 0.002, 0.14, 0.9560000000000001, 192.0, 0.0, 0.0, 0.0, 0.0, 0.0, 0.0, 0.0, 0.0, 0.0, 1.700578810791899E9, 0.0, 2023-11-21 10:00:10.791
64.0, -1656.7560025162702, -1482.8370789095259, -3043.9052634126265, 1050.7108033550744, 3195.137166397234, 3393.061863548978, 202.01506638706525, -4500.344932120434, 0.002, 0.14, 0.9560000000000001, 192.0, 0.0, 0.0, 0.0, 0.0, 0.0, 0.0, 0.0, 0.0, 0.0, 1.700578810795942E9, 0.0, 2023-11-21 10:00:10.795
65.0, -1658.0300519502225, -1481.7418434312158, -3044.307594812822, 1051.917797555661, 3196.500622809008, 3393.5312501825397, 202.4844530206267, -4506.156385678814, 0.002, 0.14, 0.9560000000000001, 192.0, 0.0, 0.0, 0.0, 0.0, 0.0, 0.0, 0.0, 0.0, 0.0, 1.700578810801018E9, 0.0, 2023-11-21 10:00:10.801
66.0, -1656.7336507718148, -1480.7136631862716, -3048.0626878813136, 1046.2628062084682, 3195.1148146527785, 3392.9501048267016, 205.4572350331825, -4508.100987446426, 0.002, 0.14, 0.9560000000000001, 192.0, 0.0, 0.0, 0.0, 0.0, 0.0, 0.0, 0.0, 0.0, 0.0, 1.700578810803961E9, 0.0, 2023-11-21 10:00:10.803
67.0, -1652.0397844362003, -1472.4882212267187, -3046.8109901918165, 1048.4085736761779, 3200.166308899678, 3397.286343251031, 211.58161301393665, -4496.589839051943, 0.002, 0.14, 0.9560000000000001, 192.0, 0.0, 0.0, 0.0, 0.0, 0.0, 0.0, 0.0, 0.0, 0.0, 1.700578810806967E9, 0.0, 2023-11-21 10:00:10.806
68.0, -1649.6034442905718, -1472.443517737808, -3039.211397077012, 1055.2482074795018, 3205.910707224692, 3398.806261873992, 213.0344764035316, -4494.667589028787, 0.008, 0.134, 0.9540000000000001, 192.0, 0.0, 64.0, 4.0, 48.0, 29.0, 208.0, 0.0, 0.0, 0.0, 1.700578810811982E9, 0.0, 2023-11-21 10:00:10.811
69.0, -1655.1913804043986, -1480.5795527195398, -3050.7448972159505, 1051.2695969664571, 3199.071073421368, 3386.937485568224, 205.27842107754006, -4508.212746168702, 0.008, 0.134, 0.9540000000000001, 192.0, 0.0, 0.0, 0.0, 0.0, 0.0, 0.0, 0.0, 0.0, 0.0, 1.700578810815974E9, 0.0, 2023-11-21 10:00:10.815
70.0, -1650.989252446801, -1468.219038035755, -3051.7730774608945, 1051.6048731332867, 3201.6415240337283, 3391.6984071372044, 211.15692986928582, -4503.004789710616, 0.008, 0.134, 0.9540000000000001, 192.0, 0.0, 0.0, 0.0, 0.0, 0.0, 0.0, 0.0, 0.0, 0.0, 1.700578810819978E9, 0.0, 2023-11-21 10:00:10.819
71.0, -1649.6481477794825, -1465.961511845769, -3042.5418070008527, 1055.628187135242, 3204.9272304686583, 3398.3368752404303, 213.0121246590763, -4501.395464109834, 0.008, 0.134, 0.9540000000000001, 192.0, 0.0, 0.0, 0.0, 0.0, 0.0, 0.0, 0.0, 0.0, 0.0, 1.700578810824008E9, 0.0, 2023-11-21 10:00:10.824
72.0, -1657.8959414834908, -1475.5280584726404, -3053.203589106034, 1049.1461812432028, 3194.9807041860468, 3386.579857656939, 205.21136584417414, -4506.022275212083, 0.008, 0.134, 0.9540000000000001, 192.0, 0.0, 0.0, 0.0, 0.0, 0.0, 0.0, 0.0, 0.0, 0.0, 1.700578810828071E9, 0.0, 2023-11-21 10:00:10.828
73.0, -1656.018394949245, -1485.3628260329756, -3069.6544730251403, 1046.3298614418343, 3196.3441605978205, 3384.5682006559614, 205.65840073328027, -4503.362417621901, 0.008, 0.134, 0.9540000000000001, 192.0, 0.0, 0.0, 0.0, 0.0, 0.0, 0.0, 0.0, 0.0, 0.0, 1.700578810831988E9, 0.0, 2023-11-21 10:00:10.831
74.0, -1652.1738949029323, -1480.1772213193442, -3061.3843275766767, 1048.1403527427142, 3199.6075152882954, 3388.0550727909895, 205.23371758862945, -4500.948429220728, 0.008, 0.134, 0.9540000000000001, 192.0, 0.0, 0.0, 0.0, 0.0, 0.0, 0.0, 0.0, 0.0, 0.0, 1.700578810835009E9, 0.0, 2023-11-21 10:00:10.835
75.0, -1655.0349181932115, -1475.7515759171936, -3053.8964931841488, 1051.4484109220996, 3203.027332189957, 3391.899572837302, 208.60883100138082, -4500.903725731817, 0.008, 0.134, 0.9540000000000001, 192.0, 0.0, 0.0, 0.0, 0.0, 0.0, 0.0, 0.0, 0.0, 0.0, 1.700578810840002E9, 0.0, 2023-11-21 10:00:10.840
76.0, -1653.0456129366892, -1470.4989159701963, -3049.8284756932826, 1049.9955475325046, 3199.875736221759, 3388.256238491087, 205.92662166674396, -4502.043664699038, 0.008, 0.134, 0.9540000000000001, 192.0, 0.0, 0.0, 0.0, 0.0, 0.0, 0.0, 0.0, 0.0, 0.0, 1.700578810844045E9, 0.0, 2023-11-21 10:00:10.844
77.0, -1650.0057756907675, -1471.1694683038556, -3050.879007682682, 1047.0227655199487, 3196.165346642178, 3385.1940495007098, 206.44071178921604, -4494.600533795421, 0.008, 0.134, 0.9540000000000001, 192.0, 0.0, 0.0, 0.0, 0.0, 0.0, 0.0, 0.0, 0.0, 0.0, 1.700578810848012E9, 0.0, 2023-11-21 10:00:10.848
78.0, -1673.497459113295, -1477.8302881515372, -3049.917882671104, 1046.8663033087616, 3194.2878001079325, 3385.931657067735, 204.20553734368534, -4506.916344990295, 0.01, 0.132, 0.9520000000000001, 192.0, 0.0, 80.0, 4.0, 32.0, 29.0, 192.0, 0.0, 0.0, 0.0, 1.700578810852043E9, 0.0, 2023-11-21 10:00:10.852
79.0, -1659.7511362732812, -1484.155831832389, -3061.8760659546933, 1041.7701055729515, 3192.7678814849714, 3384.9258285672463, 201.18805184221887, -4506.469310101189, 0.01, 0.132, 0.9520000000000001, 192.0, 0.0, 0.0, 0.0, 0.0, 0.0, 0.0, 0.0, 0.0, 0.0, 1.700578810857041E9, 0.0, 2023-11-21 10:00:10.857
80.0, -1646.6977175113818, -1478.7467096742046, -3052.3989263056433, 1048.0285940204376, 3199.2945908659212, 3388.1668315132656, 206.88774667832217, -4489.102004659415, 0.01, 0.132, 0.9520000000000001, 192.0, 0.0, 0.0, 0.0, 0.0, 0.0, 0.0, 0.0, 0.0, 0.0, 1.700578810860044E9, 0.0, 2023-11-21 10:00:10.860
81.0, -1650.18458964641, -1470.2306950367326, -3038.205568576523, 1051.9625010445716, 3198.9593146990915, 3384.970532056157, 207.80416820098975, -4492.521821561078, 0.01, 0.132, 0.9520000000000001, 192.0, 0.0, 0.0, 0.0, 0.0, 0.0, 0.0, 0.0, 0.0, 0.0, 1.70057881086307E9, 0.0, 2023-11-21 10:00:10.863
82.0, -1658.8123630061584, -1469.0460525806013, -3036.8421121647493, 1057.7739546029513, 3201.01567518898, 3384.411738444774, 205.56899375545905, -4499.897897231329, 0.01, 0.132, 0.9520000000000001, 192.0, 0.0, 0.0, 0.0, 0.0, 0.0, 0.0, 0.0, 0.0, 0.0, 1.700578810867102E9, 0.0, 2023-11-21 10:00:10.867
83.0, -1661.762793274259, -1480.1772213193442, -3054.4552867955313, 1053.013033033971, 3200.8592129777926, 3386.1104710233776, 204.20553734368534, -4502.4459960992335, 0.01, 0.132, 0.9520000000000001, 192.0, 0.0, 0.0, 0.0, 0.0, 0.0, 0.0, 0.0, 0.0, 0.0, 1.700578810872096E9, 0.0, 2023-11-21 10:00:10.872
84.0, -1656.1301536715216, -1472.3317590155316, -3043.2347110789674, 1055.4940766685102, 3208.592916559329, 3392.0113315595786, 211.60396475839195, -4490.934847704751, 0.01, 0.132, 0.9520000000000001, 192.0, 0.0, 0.0, 0.0, 0.0, 0.0, 0.0, 0.0, 0.0, 0.0, 1.700578810876102E9, 0.0, 2023-11-21 10:00:10.876
85.0, -1655.5490083156835, -1471.5047444706852, -3039.881949410671, 1055.8740563242504, 3207.564736314385, 3390.8490408479024, 211.22398510265174, -4490.420757582278, 0.01, 0.132, 0.9520000000000001, 192.0, 0.0, 0.0, 0.0, 0.0, 0.0, 0.0, 0.0, 0.0, 0.0, 1.700578810880128E9, 0.0, 2023-11-21 10:00:10.880
86.0, -1662.500400841284, -1492.5600877475845, -3062.5019147994417, 1047.045117264404, 3200.8592129777926, 3386.1998780011986, 206.03838038902052, -4496.142804162837, 0.01, 0.132, 0.9520000000000001, 192.0, 0.0, 0.0, 0.0, 0.0, 0.0, 0.0, 0.0, 0.0, 0.0, 1.700578810884134E9, 0.0, 2023-11-21 10:00:10.884
87.0, -1654.0290896927227, -1483.7311486877381, -3047.6156529922073, 1053.5718266453537, 3203.1390909122338, 3391.229020503643, 210.15110136879701, -4488.163231392292, 0.01, 0.132, 0.9520000000000001, 192.0, 0.0, 0.0, 0.0, 0.0, 0.0, 0.0, 0.0, 0.0, 0.0, 1.700578810888162E9, 0.0, 2023-11-21 10:00:10.888
88.0, -1655.213732148854, -1482.3676922759644, -3045.9392721580593, 1048.4756289095437, 3199.2275356325554, 3390.871392592358, 207.49124377861546, -4490.398405837823, 0.008, 0.13, 0.96, 192.0, 0.0, 64.0, 4.0, 16.0, 30.0, 0.0, 0.0, 0.0, 0.0, 1.70057881089123E9, 0.0, 2023-11-21 10:00:10.891
89.0, -1655.727822271326, -1477.7855846626264, -3049.0685163818025, 1050.5543411438873, 3205.3519136133095, 3397.6886746512264, 210.4640257911713, -4489.280818615058, 0.008, 0.13, 0.96, 192.0, 0.0, 0.0, 0.0, 0.0, 0.0, 0.0, 0.0, 0.0, 0.0, 1.700578810895138E9, 0.0, 2023-11-21 10:00:10.895
90.0, -1658.6111973060606, -1483.507631243185, -3057.5398275303637, 1042.1947887176025, 3197.2605821204884, 3391.027854803545, 200.6069064863809, -4495.852231484918, 0.008, 0.13, 0.96, 192.0, 0.0, 0.0, 0.0, 0.0, 0.0, 0.0, 0.0, 0.0, 0.0, 1.700578810900234E9, 0.0, 2023-11-21 10:00:10.900
91.0, -1653.3808891035187, -1488.96145689028, -3068.246313124456, 1037.3221084263455, 3193.751358241005, 3388.4127007022744, 197.76823494055688, -4498.93677221975, 0.008, 0.13, 0.96, 192.0, 0.0, 0.0, 0.0, 0.0, 0.0, 0.0, 0.0, 0.0, 0.0, 1.700578810904192E9, 0.0, 2023-11-21 10:00:10.904
92.0, -1654.632586793016, -1482.6135614649727, -3056.0199089074026, 1041.3901259172114, 3196.2547536199995, 3388.189183257721, 198.93052565223286, -4497.1039291744155, 0.008, 0.13, 0.96, 192.0, 0.0, 0.0, 0.0, 0.0, 0.0, 0.0, 0.0, 0.0, 0.0, 1.700578810908195E9, 0.0, 2023-11-21 10:00:10.908
93.0, -1657.2924443831976, -1478.1655643183667, -3049.60495824873, 1045.0334602634264, 3199.1828321436446, 3392.614828659872, 205.4348832887272, -4491.672455271775, 0.008, 0.13, 0.96, 192.0, 0.0, 0.0, 0.0, 0.0, 0.0, 0.0, 0.0, 0.0, 0.0, 1.700578810911213E9, 0.0, 2023-11-21 10:00:10.911
94.0, -1651.6821565249154, -1477.2714945401544, -3048.4203157925986, 1046.9110067976721, 3200.30041936641, 3397.778081629048, 207.17831935624116, -4488.36439709239, 0.008, 0.13, 0.96, 192.0, 0.0, 0.0, 0.0, 0.0, 0.0, 0.0, 0.0, 0.0, 0.0, 1.700578810915206E9, 0.0, 2023-11-21 10:00:10.915
95.0, -1656.4654298383512, -1471.8847241264255, -3033.5564057298193, 1052.7224603560521, 3201.038026933435, 3399.096834551911, 203.8479094324004, -4492.1194901608815, 0.008, 0.13, 0.96, 192.0, 0.0, 0.0, 0.0, 0.0, 0.0, 0.0, 0.0, 0.0, 0.0, 1.700578810919227E9, 0.0, 2023-11-21 10:00:10.919
96.0, -1653.7161652703483, -1465.0674420675568, -3035.858635408716, 1051.0013760329934, 3201.418006589175, 3401.667285164271, 206.75363621159033, -4491.27012387158, 0.008, 0.13, 0.96, 192.0, 0.0, 0.0, 0.0, 0.0, 0.0, 0.0, 0.0, 0.0, 0.0, 1.700578810923226E9, 0.0, 2023-11-21 10:00:10.923
97.0, -1657.5383135722059, -1486.547468489107, -3060.669071754107, 1041.8371608063176, 3198.266410620977, 3399.454462463196, 205.59134549991435, -4491.963027949694, 0.008, 0.13, 0.96, 192.0, 0.0, 0.0, 0.0, 0.0, 0.0, 0.0, 0.0, 0.0, 0.0, 1.700578810928285E9, 0.0, 2023-11-21 10:00:10.928
98.0, -1659.9299502289236, -1488.5591254900844, -3058.2550833529335, 1041.5018846394878, 3198.3781693432534, 3394.470023449662, 202.70797046517976, -4492.566525049988, 0.002, 0.14200000000000002, 0.9540000000000001, 192.0, 0.0, 16.0, 4.0, 112.0, 29.0, 208.0, 0.0, 0.0, 0.0, 1.700578810932256E9, 0.0, 2023-11-21 10:00:10.932
99.0, -1652.1068396695662, -1482.121823086956, -3051.527208271886, 1045.1228672412476, 3198.10994840979, 3393.151270526799, 200.76336869756804, -4487.403272080812, 0.002, 0.14200000000000002, 0.9540000000000001, 192.0, 0.0, 0.0, 0.0, 0.0, 0.0, 0.0, 0.0, 0.0, 0.0, 1.700578810936256E9, 0.0, 2023-11-21 10:00:10.936
100.0, -1660.0640606956556, -1488.0003318787017, -3057.5398275303637, 1040.4513526500884, 3192.946695440614, 3388.904439080291, 196.96357214016584, -4491.2924756160355, 0.002, 0.14200000000000002, 0.9540000000000001, 192.0, 0.0, 0.0, 0.0, 0.0, 0.0, 0.0, 0.0, 0.0, 0.0, 1.700578810939267E9, 0.0, 2023-11-21 10:00:10.939
101.0, -1650.4304588354182, -1480.8254219085482, -3055.014080406914, 1046.7098410975743, 3199.6298670327506, 3397.800433373503, 204.69727572170208, -4484.229324368158, 0.002, 0.14200000000000002, 0.9540000000000001, 192.0, 0.0, 0.0, 0.0, 0.0, 0.0, 0.0, 0.0, 0.0, 0.0, 1.700578810943284E9, 0.0, 2023-11-21 10:00:10.943
102.0, -1653.760868759259, -1470.3201020145539, -3042.564158745308, 1055.5834836463314, 3206.201279902611, 3403.5671834429722, 208.94410716821042, -4485.749242991119, 0.002, 0.14200000000000002, 0.9540000000000001, 192.0, 0.0, 0.0, 0.0, 0.0, 0.0, 0.0, 0.0, 0.0, 0.0, 1.700578810947277E9, 0.0, 2023-11-21 10:00:10.947
103.0, -1664.020319464245, -1474.2540090386879, -3046.788638447361, 1047.4698004090549, 3198.1546518987006, 3395.2970379945086, 200.9645343976658, -4494.399368095323, 0.002, 0.14200000000000002, 0.9540000000000001, 192.0, 0.0, 0.0, 0.0, 0.0, 0.0, 0.0, 0.0, 0.0, 0.0, 1.700578810951284E9, 0.0, 2023-11-21 10:00:10.951
104.0, -1659.5499705731834, -1472.510572971174, -3045.8945686691486, 1044.5640736298649, 3194.9807041860468, 3396.459328706185, 201.47862452013786, -4491.337179104946, 0.002, 0.14200000000000002, 0.9540000000000001, 192.0, 0.0, 0.0, 0.0, 0.0, 0.0, 0.0, 0.0, 0.0, 0.0, 1.700578810955301E9, 0.0, 2023-11-21 10:00:10.955
105.0, -1657.828886250125, -1477.249142795699, -3057.428068808087, 1041.9042160396834, 3195.159518141689, 3396.6381426618273, 202.57385999844792, -4489.929019204262, 0.002, 0.14200000000000002, 0.9540000000000001, 192.0, 0.0, 0.0, 0.0, 0.0, 0.0, 0.0, 0.0, 0.0, 0.0, 1.700578810960314E9, 0.0, 2023-11-21 10:00:10.960
106.0, -1652.3750606030299, -1469.2472182806991, -3052.0412983943584, 1049.9731957880492, 3199.9204397106696, 3398.9850758296343, 206.88774667832217, -4488.967894192683, 0.002, 0.14200000000000002, 0.9540000000000001, 192.0, 0.0, 0.0, 0.0, 0.0, 0.0, 0.0, 0.0, 0.0, 0.0, 1.700578810964314E9, 0.0, 2023-11-21 10:00:10.964
107.0, -1654.1632001594544, -1464.8439246230037, -3044.2852430683665, 1056.3210912133566, 3201.909744967192, 3395.900535094802, 204.54081351051494, -4497.550964063521, 0.002, 0.14200000000000002, 0.9540000000000001, 192.0, 0.0, 0.0, 0.0, 0.0, 0.0, 0.0, 0.0, 0.0, 0.0, 1.700578810967385E9, 0.0, 2023-11-21 10:00:10.967
108.0, -1659.1252874285326, -1472.6893869268165, -3043.100600612235, 1054.4211929346554, 3200.970971700069, 3391.7654623705703, 200.69631346420212, -4501.12724317637, 0.002, 0.14200000000000002, 0.9540000000000001, 192.0, 0.0, 0.0, 0.0, 0.0, 0.0, 0.0, 0.0, 0.0, 0.0, 1.700578810971356E9, 0.0, 2023-11-21 10:00:10.971
109.0, -1644.2166738768428, -1455.8585233519702, -3035.925690642082, 1060.9926058045157, 3207.4082741031975, 3397.375750228852, 206.06073213347582, -4489.951370948716, 0.01, 0.14, 0.96, 192.0, 0.0, 80.0, 4.0, 96.0, 30.0, 0.0, 0.0, 0.0, 0.0, 1.700578810975336E9, 0.0, 2023-11-21 10:00:10.975
110.0, -1649.8716652240355, -1479.1490410744002, -3063.820667722305, 1048.4085736761779, 3196.0312361754463, 3386.6022094013942, 196.33772329541725, -4496.254562885113, 0.01, 0.14, 0.96, 192.0, 0.0, 0.0, 0.0, 0.0, 0.0, 0.0, 0.0, 0.0, 0.0, 1.700578810979367E9, 0.0, 2023-11-21 10:00:10.979
111.0, -1663.5509328306835, -1482.8370789095259, -3058.433897308576, 1047.2015794755912, 3196.880602464748, 3387.317465223964, 202.93148790973282, -4497.528612319066, 0.01, 0.14, 0.96, 192.0, 0.0, 0.0, 0.0, 0.0, 0.0, 0.0, 0.0, 0.0, 0.0, 1.700578810983355E9, 0.0, 2023-11-21 10:00:10.983
112.0, -1666.6801770544264, -1471.7506136596935, -3036.4844842534644, 1050.688451610619, 3194.332503596843, 3386.423395445752, 198.95287739668817, -4504.010618211105, 0.01, 0.14, 0.96, 192.0, 0.0, 0.0, 0.0, 0.0, 0.0, 0.0, 0.0, 0.0, 0.0, 1.700578810988359E9, 0.0, 2023-11-21 10:00:10.988
113.0, -1651.1233629135327, -1461.7593838881712, -3054.231769350978, 1050.1520097436917, 3199.7639774994827, 3397.643971162316, 210.50872928008192, -4490.197240137725, 0.01, 0.14, 0.96, 192.0, 0.0, 0.0, 0.0, 0.0, 0.0, 0.0, 0.0, 0.0, 0.0, 1.700578810992363E9, 0.0, 2023-11-21 10:00:10.992
114.0, -1649.4246303349294, -1481.540677731118, -3077.857563240238, 1045.8381230638174, 3200.8368612333375, 3398.6050961738943, 215.71668573816845, -4480.451879555211, 0.01, 0.14, 0.96, 192.0, 0.0, 0.0, 0.0, 0.0, 0.0, 0.0, 0.0, 0.0, 0.0, 1.700578810995369E9, 0.0, 2023-11-21 10:00:10.995
115.0, -1657.1359821720102, -1487.9779801342465, -3075.4212230946096, 1043.178265473636, 3195.0477594194126, 3390.7819856145366, 205.50193852209313, -4488.945542448228, 0.01, 0.14, 0.96, 192.0, 0.0, 0.0, 0.0, 0.0, 0.0, 0.0, 0.0, 0.0, 0.0, 1.700578810999394E9, 0.0, 2023-11-21 10:00:10.999
116.0, -1656.7336507718148, -1480.154869574889, -3061.049051409847, 1047.246282964502, 3199.138128654734, 3393.508898438084, 205.14431061080822, -4489.996074437628, 0.01, 0.14, 0.96, 192.0, 0.0, 0.0, 0.0, 0.0, 0.0, 0.0, 0.0, 0.0, 0.0, 1.700578811003424E9, 0.0, 2023-11-21 10:00:11.003
117.0, -1656.688947282904, -1476.310369528576, -3053.6729757395956, 1050.9566725440827, 3202.781463000949, 3395.900535094802, 205.21136584417414, -4488.654969770309, 0.01, 0.14, 0.96, 192.0, 0.0, 0.0, 0.0, 0.0, 0.0, 0.0, 0.0, 0.0, 0.0, 1.700578811007417E9, 0.0, 2023-11-21 10:00:11.007
118.0, -1652.7550402587701, -1467.190857790811, -3040.910129655615, 1058.7574313589848, 3206.8941839807253, 3398.1133577958776, 207.42418854524954, -4484.296379601524, 0.01, 0.14, 0.96, 192.0, 0.0, 0.0, 0.0, 0.0, 0.0, 0.0, 0.0, 0.0, 0.0, 1.700578811011421E9, 0.0, 2023-11-21 10:00:11.011
119.0, -1655.6384152935047, -1475.1033753279896, -3047.07921112528, 1049.9508440435939, 3198.5793350433514, 3392.4136629597742, 205.90426992228865, -4486.88918195834, 0.008, 0.134, 0.96, 192.0, 0.0, 64.0, 4.0, 48.0, 30.0, 0.0, 0.0, 0.0, 0.0, 1.7005788110164E9, 0.0, 2023-11-21 10:00:11.016
120.0, -1660.6899095404042, -1483.284113798632, -3065.787621234372, 1039.2220067050466, 3191.270314606466, 3386.378691956841, 200.9421826532105, -4495.047568684527, 0.008, 0.134, 0.96, 192.0, 0.0, 0.0, 0.0, 0.0, 0.0, 0.0, 0.0, 0.0, 0.0, 1.700578811020416E9, 0.0, 2023-11-21 10:00:11.020
121.0, -1655.6384152935047, -1478.8808201409365, -3065.0723654118024, 1041.9042160396834, 3194.3548553412984, 3394.1123955383773, 207.46889203416015, -4493.281780872558, 0.008, 0.134, 0.96, 192.0, 0.0, 0.0, 0.0, 0.0, 0.0, 0.0, 0.0, 0.0, 0.0, 1.700578811023428E9, 0.0, 2023-11-21 10:00:11.023
122.0, -1657.2477408942868, -1475.6174654504616, -3049.2920338263552, 1047.693317853608, 3196.724140253561, 3398.5603926849835, 210.86635719136683, -4491.515993060589, 0.008, 0.134, 0.96, 192.0, 0.0, 0.0, 0.0, 0.0, 0.0, 0.0, 0.0, 0.0, 0.0, 1.700578811027429E9, 0.0, 2023-11-21 10:00:11.027
123.0, -1662.3662903745521, -1467.4143752353639, -3031.9694318734923, 1057.662195880675, 3201.708579267094, 3399.5662211854724, 212.2968688365065, -4491.963027949694, 0.008, 0.134, 0.96, 192.0, 0.0, 0.0, 0.0, 0.0, 0.0, 0.0, 0.0, 0.0, 0.0, 1.700578811031443E9, 0.0, 2023-11-21 10:00:11.031
124.0, -1653.2244268923316, -1473.8069741495817, -3060.311443842822, 1049.7720300879514, 3200.2557158774994, 3398.8956688518133, 209.99463915760987, -4492.454766327711, 0.008, 0.134, 0.96, 192.0, 0.0, 0.0, 0.0, 0.0, 0.0, 0.0, 0.0, 0.0, 0.0, 1.700578811035495E9, 0.0, 2023-11-21 10:00:11.035
125.0, -1655.9066362269684, -1480.0431108526125, -3066.279359612389, 1045.1675707301583, 3197.528803053952, 3396.2134595171765, 207.89357517881098, -4495.248734384624, 0.008, 0.134, 0.96, 192.0, 0.0, 0.0, 0.0, 0.0, 0.0, 0.0, 0.0, 0.0, 0.0, 1.700578811040502E9, 0.0, 2023-11-21 10:00:11.040
126.0, -1657.180685660921, -1481.5183259866628, -3064.55827528933, 1040.3172421833567, 3193.840765218826, 3390.7149303811707, 202.1938803427077, -4501.2166501541915, 0.008, 0.134, 0.96, 192.0, 0.0, 0.0, 0.0, 0.0, 0.0, 0.0, 0.0, 0.0, 0.0, 1.700578811043464E9, 0.0, 2023-11-21 10:00:11.043
127.0, -1666.5460665876947, -1480.7136631862716, -3061.1831618765787, 1042.9100445401723, 3196.6570850201947, 3392.458366448685, 205.27842107754006, -4498.55679256401, 0.008, 0.134, 0.96, 192.0, 0.0, 0.0, 0.0, 0.0, 0.0, 0.0, 0.0, 0.0, 0.0, 1.700578811047468E9, 0.0, 2023-11-21 10:00:11.047
128.0, -1664.534409586717, -1475.0363200946238, -3053.3824030616765, 1050.2637684659683, 3201.5297653114517, 3396.459328706185, 209.01116240157634, -4498.087405930449, 0.008, 0.134, 0.96, 192.0, 0.0, 0.0, 0.0, 0.0, 0.0, 0.0, 0.0, 0.0, 0.0, 1.700578811051499E9, 0.0, 2023-11-21 10:00:11.051
129.0, -1658.5441420726947, -1472.220000293255, -3049.1579233596235, 1052.945977800605, 3204.591954301829, 3401.4437677197184, 207.6700577342579, -4496.120452418381, 0.006, 0.14, 0.9540000000000001, 192.0, 0.0, 48.0, 4.0, 96.0, 29.0, 208.0, 0.0, 0.0, 0.0, 1.7005788110555E9, 0.0, 2023-11-21 10:00:11.055
130.0, -1654.431421092918, -1465.8721048679479, -3043.122952356691, 1053.951806301094, 3206.1565764137003, 3404.9753433436567, 210.01699090206517, -4490.957199449205, 0.006, 0.14, 0.9540000000000001, 192.0, 0.0, 0.0, 0.0, 0.0, 0.0, 0.0, 0.0, 0.0, 0.0, 1.700578811060518E9, 0.0, 2023-11-21 10:00:11.060
131.0, -1665.2049619203763, -1462.7428606442047, -3042.6535657231293, 1050.5543411438873, 3200.143957155223, 3397.509860695584, 205.92662166674396, -4498.042702441538, 0.006, 0.14, 0.9540000000000001, 192.0, 0.0, 0.0, 0.0, 0.0, 0.0, 0.0, 0.0, 0.0, 0.0, 1.700578811063516E9, 0.0, 2023-11-21 10:00:11.063
132.0, -1669.049461966689, -1467.5261339576405, -3042.6312139786737, 1052.0966115113035, 3198.8252042323597, 3392.905401337791, 201.41156928677194, -4501.954257721217, 0.006, 0.14, 0.9540000000000001, 192.0, 0.0, 0.0, 0.0, 0.0, 0.0, 0.0, 0.0, 0.0, 0.0, 1.700578811067558E9, 0.0, 2023-11-21 10:00:11.067
133.0, -1659.0582321951667, -1468.6884246693164, -3041.155998844624, 1057.662195880675, 3207.7211985255717, 3399.4321107187407, 206.17249085575236, -4493.751167506119, 0.006, 0.14, 0.9540000000000001, 192.0, 0.0, 0.0, 0.0, 0.0, 0.0, 0.0, 0.0, 0.0, 0.0, 1.70057881107154E9, 0.0, 2023-11-21 10:00:11.071
134.0, -1663.7968020196918, -1483.0605963540788, -3062.077231654791, 1044.8099428188734, 3199.2051838881, 3392.234849004132, 204.0937786214088, -4498.981475708661, 0.006, 0.14, 0.9540000000000001, 192.0, 0.0, 0.0, 0.0, 0.0, 0.0, 0.0, 0.0, 0.0, 0.0, 1.700578811075551E9, 0.0, 2023-11-21 10:00:11.075
135.0, -1662.1874764189097, -1479.283151541132, -3051.7060222275286, 1050.5766928883424, 3198.400521087709, 3392.167793770766, 205.32312456645067, -4498.445033841734, 0.006, 0.14, 0.9540000000000001, 192.0, 0.0, 0.0, 0.0, 0.0, 0.0, 0.0, 0.0, 0.0, 0.0, 1.700578811079548E9, 0.0, 2023-11-21 10:00:11.079
136.0, -1662.6568630524712, -1472.734090415727, -3038.630251721174, 1058.0645272808704, 3197.081768164846, 3389.7538053695926, 200.78572044202335, -4501.864850743395, 0.006, 0.14, 0.9540000000000001, 192.0, 0.0, 0.0, 0.0, 0.0, 0.0, 0.0, 0.0, 0.0, 0.0, 1.700578811083602E9, 0.0, 2023-11-21 10:00:11.083
137.0, -1656.018394949245, -1482.7253201872493, -3071.3308538592883, 1045.7040125970857, 3198.4452245766192, 3394.067692049467, 204.58551699942555, -4496.656894285309, 0.006, 0.14, 0.9540000000000001, 192.0, 0.0, 0.0, 0.0, 0.0, 0.0, 0.0, 0.0, 0.0, 0.0, 1.700578811088574E9, 0.0, 2023-11-21 10:00:11.088
138.0, -1658.1865141614098, -1485.9439713888135, -3070.3920805921653, 1044.9217015411498, 3200.009846688491, 3395.2746862500535, 208.63118274583613, -4494.667589028787, 0.006, 0.14, 0.9540000000000001, 192.0, 0.0, 0.0, 0.0, 0.0, 0.0, 0.0, 0.0, 0.0, 0.0, 1.700578811091574E9, 0.0, 2023-11-21 10:00:11.091
139.0, -1655.5713600601389, -1484.5358114881292, -3063.9994816779476, 1048.7662015874628, 3200.6133437887843, 3395.38644497233, 210.26286009107355, -4493.751167506119, 0.01, 0.138, 0.9520000000000001, 192.0, 0.0, 80.0, 4.0, 80.0, 29.0, 192.0, 0.0, 0.0, 0.0, 1.700578811095604E9, 0.0, 2023-11-21 10:00:11.095
140.0, -1657.5606653166612, -1480.4007387638974, -3056.243426351956, 1050.7108033550744, 3199.6075152882954, 3395.3417414834194, 210.55343276899254, -4495.360493106901, 0.01, 0.138, 0.9520000000000001, 192.0, 0.0, 0.0, 0.0, 0.0, 0.0, 0.0, 0.0, 0.0, 0.0, 1.700578811099625E9, 0.0, 2023-11-21 10:00:11.099
141.0, -1659.66172929546, -1472.3541107599867, -3044.8663884242046, 1052.9906812895158, 3195.9865326865356, 3392.86069784888, 206.70893272267972, -4497.170984407781, 0.01, 0.138, 0.9520000000000001, 192.0, 0.0, 0.0, 0.0, 0.0, 0.0, 0.0, 0.0, 0.0, 0.0, 1.700578811103644E9, 0.0, 2023-11-21 10:00:11.103
142.0, -1662.5451043301946, -1481.8759538979477, -3053.0694786393024, 1049.0567742653816, 3192.4773088070524, 3389.3961774583076, 203.64674373230264, -4500.657856542809, 0.01, 0.138, 0.9520000000000001, 192.0, 0.0, 0.0, 0.0, 0.0, 0.0, 0.0, 0.0, 0.0, 0.0, 1.700578811107611E9, 0.0, 2023-11-21 10:00:11.107
143.0, -1657.8065345056696, -1478.254971296188, -3051.2589873384222, 1051.2025417330913, 3193.5725442853627, 3393.866526349369, 207.40183680079423, -4494.488775073144, 0.01, 0.138, 0.9520000000000001, 192.0, 0.0, 0.0, 0.0, 0.0, 0.0, 0.0, 0.0, 0.0, 0.0, 1.700578811111686E9, 0.0, 2023-11-21 10:00:11.111
144.0, -1646.4742000668289, -1465.0674420675568, -3037.98205113197, 1058.5115621699765, 3198.5122798099856, 3398.8286136184474, 215.67198224925784, -4487.604437780909, 0.01, 0.138, 0.9520000000000001, 192.0, 0.0, 0.0, 0.0, 0.0, 0.0, 0.0, 0.0, 0.0, 0.0, 1.700578811114682E9, 0.0, 2023-11-21 10:00:11.114
145.0, -1646.0048134332674, -1478.187916062822, -3056.243426351956, 1047.916835298161, 3195.2042216306, 3396.995770573112, 212.3192205809618, -4492.611228538898, 0.01, 0.138, 0.9520000000000001, 192.0, 0.0, 0.0, 0.0, 0.0, 0.0, 0.0, 0.0, 0.0, 0.0, 1.7005788111187E9, 0.0, 2023-11-21 10:00:11.118
146.0, -1648.6199675345383, -1476.8915148844142, -3055.0587838958245, 1047.1568759866807, 3193.7960617299154, 3396.749901384104, 211.87218569185563, -4489.504336059611, 0.01, 0.138, 0.9520000000000001, 192.0, 0.0, 0.0, 0.0, 0.0, 0.0, 0.0, 0.0, 0.0, 0.0, 1.700578811122643E9, 0.0, 2023-11-21 10:00:11.122
147.0, -1654.3867176040076, -1465.536828701118, -3026.180330059568, 1063.205428505591, 3203.027332189957, 3400.773215386059, 214.82261595995618, -4488.2973418590245, 0.01, 0.138, 0.9520000000000001, 192.0, 0.0, 0.0, 0.0, 0.0, 0.0, 0.0, 0.0, 0.0, 0.0, 1.700578811127673E9, 0.0, 2023-11-21 10:00:11.127
148.0, -1654.7666972597478, -1464.1957240337997, -3031.3882865176543, 1058.8021348478956, 3201.01567518898, 3397.085177550933, 210.62048800235846, -4497.819184996985, 0.01, 0.138, 0.9520000000000001, 192.0, 0.0, 0.0, 0.0, 0.0, 0.0, 0.0, 0.0, 0.0, 0.0, 1.700578811131696E9, 0.0, 2023-11-21 10:00:11.131
149.0, -1666.8813427545242, -1493.4318057813414, -3072.3143306153215, 1036.0927624813037, 3186.6435035042173, 3385.037587289523, 202.37269429835015, -4499.875545486873, 0.01, 0.132, 0.9540000000000001, 192.0, 0.0, 80.0, 4.0, 32.0, 29.0, 208.0, 0.0, 0.0, 0.0, 1.700578811135701E9, 0.0, 2023-11-21 10:00:11.135
150.0, -1664.6461683089935, -1491.1072243579895, -3076.427051595098, 1034.4387333916109, 3187.8281459603486, 3385.6634361342713, 202.03741813152055, -4496.969818707683, 0.01, 0.132, 0.9540000000000001, 192.0, 0.0, 0.0, 0.0, 0.0, 0.0, 0.0, 0.0, 0.0, 0.0, 1.70057881113968E9, 0.0, 2023-11-21 10:00:11.139
151.0, -1660.3993368624851, -1483.6193899654616, -3069.2297898804895, 1041.7924573174068, 3194.533669296941, 3391.0725582924556, 207.2900780785177, -4491.873620971874, 0.01, 0.132, 0.9540000000000001, 192.0, 0.0, 0.0, 0.0, 0.0, 0.0, 0.0, 0.0, 0.0, 0.0, 1.700578811142682E9, 0.0, 2023-11-21 10:00:11.142
152.0, -1655.3254908711303, -1475.8186311505594, -3057.8974554416486, 1050.241416721513, 3200.4792333220526, 3396.48168045064, 210.7993019580009, -4487.827955225463, 0.01, 0.132, 0.9540000000000001, 192.0, 0.0, 0.0, 0.0, 0.0, 0.0, 0.0, 0.0, 0.0, 0.0, 1.700578811146692E9, 0.0, 2023-11-21 10:00:11.146
153.0, -1653.0009094477784, -1471.4600409817745, -3052.1083536277242, 1051.7166318555633, 3199.071073421368, 3397.5992676734054, 209.63701124632493, -4485.41396682429, 0.01, 0.132, 0.9540000000000001, 192.0, 0.0, 0.0, 0.0, 0.0, 0.0, 0.0, 0.0, 0.0, 0.0, 1.700578811150709E9, 0.0, 2023-11-21 10:00:11.150
154.0, -1650.6092727910607, -1463.413412977864, -3035.992745875448, 1059.0256522924487, 3202.8932217232255, 3401.8908026088243, 211.62631650284726, -4482.12826038936, 0.01, 0.132, 0.9540000000000001, 192.0, 0.0, 0.0, 0.0, 0.0, 0.0, 0.0, 0.0, 0.0, 0.0, 1.700578811155704E9, 0.0, 2023-11-21 10:00:11.155
155.0, -1651.8386187361025, -1460.9100175988697, -3027.9014143826266, 1063.0042628054932, 3207.6317915477507, 3404.5283084545504, 215.2249473601517, -4482.776460978564, 0.01, 0.132, 0.9540000000000001, 192.0, 0.0, 0.0, 0.0, 0.0, 0.0, 0.0, 0.0, 0.0, 0.0, 1.700578811159715E9, 0.0, 2023-11-21 10:00:11.159
156.0, -1658.5888455616052, -1471.8847241264255, -3038.4067342766207, 1064.5688849173648, 3210.8951462382256, 3407.8810701228467, 219.27061310656228, -4482.843516211929, 0.01, 0.132, 0.9540000000000001, 192.0, 0.0, 0.0, 0.0, 0.0, 0.0, 0.0, 0.0, 0.0, 0.0, 1.700578811163745E9, 0.0, 2023-11-21 10:00:11.163
157.0, -1663.729746786326, -1480.0431108526125, -3054.2988245843444, 1051.627224877742, 3193.7737099854603, 3394.537078683028, 208.43001704573837, -4489.481984315155, 0.01, 0.132, 0.9540000000000001, 192.0, 0.0, 0.0, 0.0, 0.0, 0.0, 0.0, 0.0, 0.0, 0.0, 1.700578811167744E9, 0.0, 2023-11-21 10:00:11.167
158.0, -1660.533447329217, -1487.1956690783106, -3051.504856527431, 1052.8565708227839, 3194.936000697136, 3394.581782171939, 213.16858687026345, -4480.407176066301, 0.01, 0.132, 0.9540000000000001, 192.0, 0.0, 0.0, 0.0, 0.0, 0.0, 0.0, 0.0, 0.0, 0.0, 1.700578811170763E9, 0.0, 2023-11-21 10:00:11.170
159.0, -1657.2477408942868, -1482.3900440204197, -3042.0277168783805, 1053.4153644341666, 3193.974875685558, 3391.832517603936, 207.84887168990036, -4484.966931935183, 0.008, 0.132, 0.9560000000000001, 192.0, 0.0, 64.0, 4.0, 32.0, 29.0, 224.0, 0.0, 0.0, 0.0, 1.700578811174765E9, 0.0, 2023-11-21 10:00:11.174
160.0, -1651.4809908248176, -1461.5582181880736, -3037.1326848426684, 1053.0577365228817, 3194.578372785851, 3396.5934391729165, 209.79347345751208, -4478.551981276511, 0.008, 0.132, 0.9560000000000001, 192.0, 0.0, 0.0, 0.0, 0.0, 0.0, 0.0, 0.0, 0.0, 0.0, 1.700578811178759E9, 0.0, 2023-11-21 10:00:11.178
161.0, -1655.6160635490494, -1472.1752968043443, -3037.311498798311, 1058.042175536415, 3192.6784745071504, 3397.085177550933, 208.60883100138082, -4479.960141177195, 0.008, 0.132, 0.9560000000000001, 192.0, 0.0, 0.0, 0.0, 0.0, 0.0, 0.0, 0.0, 0.0, 0.0, 1.700578811183834E9, 0.0, 2023-11-21 10:00:11.183
162.0, -1649.5810925461165, -1486.0780818555454, -3064.55827528933, 1053.1694952451583, 3192.7678814849714, 3398.962724085179, 210.4640257911713, -4482.508240045099, 0.008, 0.132, 0.9560000000000001, 192.0, 0.0, 0.0, 0.0, 0.0, 0.0, 0.0, 0.0, 0.0, 0.0, 1.700578811187783E9, 0.0, 2023-11-21 10:00:11.187
163.0, -1646.5412553001947, -1477.6738259403498, -3060.2220368650005, 1054.4882481680213, 3192.276143106955, 3397.6663229067713, 209.65936299078024, -4482.21766736718, 0.008, 0.132, 0.9560000000000001, 192.0, 0.0, 0.0, 0.0, 0.0, 0.0, 0.0, 0.0, 0.0, 0.0, 1.700578811191796E9, 0.0, 2023-11-21 10:00:11.191
164.0, -1655.079621682122, -1475.7739276616487, -3055.6622809961177, 1054.756469101485, 3195.6065530307956, 3399.2309450186426, 210.53108102453723, -4480.876562699862, 0.008, 0.132, 0.9560000000000001, 192.0, 0.0, 0.0, 0.0, 0.0, 0.0, 0.0, 0.0, 0.0, 0.0, 1.700578811195798E9, 0.0, 2023-11-21 10:00:11.195
165.0, -1657.404203105474, -1470.0071775921797, -3045.045202379847, 1056.2316842355353, 3197.6629135206836, 3401.1531950417993, 212.0286479030428, -4479.669568499276, 0.008, 0.132, 0.9560000000000001, 192.0, 0.0, 0.0, 0.0, 0.0, 0.0, 0.0, 0.0, 0.0, 0.0, 1.700578811198818E9, 0.0, 2023-11-21 10:00:11.198
166.0, -1658.2535693947757, -1481.5630294755733, -3052.9577199170258, 1051.5601696443762, 3188.029311660446, 3393.7547676270924, 204.83138618843392, -4484.206972623703, 0.008, 0.132, 0.9560000000000001, 192.0, 0.0, 0.0, 0.0, 0.0, 0.0, 0.0, 0.0, 0.0, 0.0, 1.700578811202827E9, 0.0, 2023-11-21 10:00:11.202
167.0, -1663.7744502752364, -1479.730186430238, -3054.2988245843444, 1050.0849545103258, 3189.01278841648, 3393.9559333271905, 204.7196274661574, -4486.911533702795, 0.008, 0.132, 0.9560000000000001, 192.0, 0.0, 0.0, 0.0, 0.0, 0.0, 0.0, 0.0, 0.0, 0.0, 1.700578811206827E9, 0.0, 2023-11-21 10:00:11.206
168.0, -1661.0922409405996, -1476.5562387175846, -3054.6564524956293, 1049.6379196212197, 3191.8961634512143, 3396.794604873014, 209.07821763494226, -4479.915437688284, 0.008, 0.132, 0.9560000000000001, 192.0, 0.0, 0.0, 0.0, 0.0, 0.0, 0.0, 0.0, 0.0, 0.0, 1.700578811210829E9, 0.0, 2023-11-21 10:00:11.210
169.0, -1664.7132235423594, -1483.440576009819, -3059.037394408869, 1045.6816608526303, 3188.5434017829184, 3392.123090281855, 203.69144722121325, -4484.586952279443, 0.006, 0.132, 0.96, 192.0, 0.0, 48.0, 4.0, 32.0, 30.0, 0.0, 0.0, 0.0, 0.0, 1.700578811215886E9, 0.0, 2023-11-21 10:00:11.215
170.0, -1663.7968020196918, -1480.4901457417186, -3053.404754806132, 1049.369698687756, 3190.979741928547, 3394.447671705207, 201.81390068696746, -4488.274990114569, 0.006, 0.132, 0.96, 192.0, 0.0, 0.0, 0.0, 0.0, 0.0, 0.0, 0.0, 0.0, 0.0, 1.700578811219866E9, 0.0, 2023-11-21 10:00:11.219
171.0, -1657.9629967168567, -1476.3550730174868, -3050.253158837934, 1049.9284922991387, 3190.3762448282537, 3395.5876106724277, 200.02576113054292, -4491.091309915938, 0.006, 0.132, 0.96, 192.0, 0.0, 0.0, 0.0, 0.0, 0.0, 0.0, 0.0, 0.0, 0.0, 1.700578811223871E9, 0.0, 2023-11-21 10:00:11.223
172.0, -1647.6364907785048, -1469.67190142535, -3048.912054170615, 1049.235588221024, 3188.968084927569, 3392.7265873821484, 201.16570009776356, -4485.4810220576555, 0.006, 0.132, 0.96, 192.0, 0.0, 0.0, 0.0, 0.0, 0.0, 0.0, 0.0, 0.0, 0.0, 1.700578811226886E9, 0.0, 2023-11-21 10:00:11.226
173.0, -1656.5101333272617, -1475.796279406104, -3055.528170529386, 1046.4863236530214, 3188.945733183114, 3388.7256251246486, 199.17639484124123, -4482.910571445295, 0.006, 0.132, 0.96, 192.0, 0.0, 0.0, 0.0, 0.0, 0.0, 0.0, 0.0, 0.0, 0.0, 1.70057881123088E9, 0.0, 2023-11-21 10:00:11.230
174.0, -1657.627720550027, -1473.4269944938417, -3047.7050599700287, 1051.6048731332867, 3198.132300154245, 3396.347569983908, 201.56803149795908, -4487.559734291999, 0.006, 0.132, 0.96, 192.0, 0.0, 0.0, 0.0, 0.0, 0.0, 0.0, 0.0, 0.0, 0.0, 1.700578811234897E9, 0.0, 2023-11-21 10:00:11.234
175.0, -1650.698679768882, -1447.7448401146937, -3009.8412048627383, 1072.4143472211776, 3213.979686973058, 3404.640067176827, 208.00533390108754, -4487.090347658437, 0.006, 0.132, 0.96, 192.0, 0.0, 0.0, 0.0, 0.0, 0.0, 0.0, 0.0, 0.0, 0.0, 1.700578811238898E9, 0.0, 2023-11-21 10:00:11.238
176.0, -1650.7210315133373, -1455.8585233519702, -3015.8314723767608, 1073.30841699939, 3216.259564907499, 3407.5904974449277, 215.04613340450925, -4482.240019111636, 0.006, 0.132, 0.96, 192.0, 0.0, 0.0, 0.0, 0.0, 0.0, 0.0, 0.0, 0.0, 0.0, 1.700578811243938E9, 0.0, 2023-11-21 10:00:11.243
177.0, -1668.468316610851, -1494.9740761487576, -3065.541752045364, 1034.4163816471555, 3185.4141575591752, 3381.438956432218, 193.99079012760998, -4498.623847797376, 0.006, 0.132, 0.96, 192.0, 0.0, 0.0, 0.0, 0.0, 0.0, 0.0, 0.0, 0.0, 0.0, 1.700578811247956E9, 0.0, 2023-11-21 10:00:11.247
178.0, -1661.9863107188119, -1476.3774247619422, -3052.8683129392043, 1042.239492206513, 3190.7338727395386, 3383.9200000667574, 196.31537155096194, -4495.338141362446, 0.006, 0.132, 0.96, 192.0, 0.0, 0.0, 0.0, 0.0, 0.0, 0.0, 0.0, 0.0, 0.0, 1.700578811250925E9, 0.0, 2023-11-21 10:00:11.250
179.0, -1654.0067379482673, -1479.2607997966768, -3061.116106643213, 1046.2628062084682, 3195.9865326865356, 3389.217363502665, 202.35034255389485, -4491.068958171482, 0.008, 0.128, 0.9560000000000001, 192.0, 0.0, 64.0, 4.0, 0.0, 29.0, 224.0, 0.0, 0.0, 0.0, 1.700578811254932E9, 0.0, 2023-11-21 10:00:11.254
180.0, -1653.0903164255997, -1481.8983056424029, -3066.145249145657, 1044.653480607686, 3198.0875966653343, 3392.570125170961, 207.15596761178585, -4489.929019204262, 0.008, 0.128, 0.9560000000000001, 192.0, 0.0, 0.0, 0.0, 0.0, 0.0, 0.0, 0.0, 0.0, 0.0, 1.700578811258965E9, 0.0, 2023-11-21 10:00:11.258
181.0, -1656.1301536715216, -1480.221924808255, -3045.8945686691486, 1048.9450155431052, 3201.2838961224434, 3396.772253128559, 208.40766530128306, -4489.861963970896, 0.008, 0.128, 0.9560000000000001, 192.0, 0.0, 0.0, 0.0, 0.0, 0.0, 0.0, 0.0, 0.0, 0.0, 1.700578811262942E9, 0.0, 2023-11-21 10:00:11.262
182.0, -1650.7657350022478, -1453.153962272878, -3022.6487544356296, 1054.8011725903955, 3199.451053077108, 3394.2465060051095, 204.60786874388086, -4488.230286625658, 0.008, 0.128, 0.9560000000000001, 192.0, 0.0, 0.0, 0.0, 0.0, 0.0, 0.0, 0.0, 0.0, 0.0, 1.700578811266962E9, 0.0, 2023-11-21 10:00:11.266
183.0, -1643.6131767765496, -1473.516401471663, -3061.1384583876684, 1047.045117264404, 3202.5802973008513, 3398.4933374516177, 206.57482225594788, -4480.720100488675, 0.008, 0.128, 0.9560000000000001, 192.0, 0.0, 0.0, 0.0, 0.0, 0.0, 0.0, 0.0, 0.0, 0.0, 1.700578811271966E9, 0.0, 2023-11-21 10:00:11.271
184.0, -1647.792952989692, -1490.1460993464113, -3070.3920805921653, 1042.3512509287896, 3201.5521170559073, 3396.5040321950955, 204.02672338804288, -4478.663739998787, 0.008, 0.128, 0.9560000000000001, 192.0, 0.0, 0.0, 0.0, 0.0, 0.0, 0.0, 0.0, 0.0, 0.0, 1.700578811275975E9, 0.0, 2023-11-21 10:00:11.275
185.0, -1655.0125664487562, -1475.4610032392745, -3044.776981446383, 1046.9780620310382, 3199.652218777206, 3395.6546659057935, 197.99175238510995, -4488.252638370113, 0.008, 0.128, 0.9560000000000001, 192.0, 0.0, 0.0, 0.0, 0.0, 0.0, 0.0, 0.0, 0.0, 0.0, 1.700578811278996E9, 0.0, 2023-11-21 10:00:11.278
186.0, -1656.0407466937004, -1473.8069741495817, -3051.817780949805, 1046.598082375298, 3197.7970239874157, 3394.7605961275813, 197.65647621828035, -4484.452841812711, 0.008, 0.128, 0.9560000000000001, 192.0, 0.0, 0.0, 0.0, 0.0, 0.0, 0.0, 0.0, 0.0, 0.0, 1.700578811282997E9, 0.0, 2023-11-21 10:00:11.282
187.0, -1648.2623396232534, -1469.604846191984, -3048.2862053258664, 1048.9226637986499, 3199.093425165823, 3396.8169566174697, 201.41156928677194, -4482.776460978564, 0.008, 0.128, 0.9560000000000001, 192.0, 0.0, 0.0, 0.0, 0.0, 0.0, 0.0, 0.0, 0.0, 0.0, 1.700578811287002E9, 0.0, 2023-11-21 10:00:11.287
188.0, -1651.503342569273, -1476.8915148844142, -3050.7001937270397, 1051.8954458112057, 3201.2391926335326, 3399.342703740919, 205.4348832887272, -4482.88821970084, 0.008, 0.128, 0.9560000000000001, 192.0, 0.0, 0.0, 0.0, 0.0, 0.0, 0.0, 0.0, 0.0, 0.0, 1.700578811291037E9, 0.0, 2023-11-21 10:00:11.291
189.0, -1650.2516448797758, -1478.1655643183667, -3058.076269397291, 1049.5708643878538, 3201.753282756005, 3398.448633962707, 204.85373793288923, -4487.649141269821, 0.008, 0.13, 0.96, 192.0, 0.0, 64.0, 4.0, 16.0, 30.0, 0.0, 0.0, 0.0, 0.0, 1.700578811295021E9, 0.0, 2023-11-21 10:00:11.295
190.0, -1652.822095492136, -1474.5892852055176, -3048.8002954483386, 1053.7282888565408, 3201.5074135669965, 3398.5827444294387, 204.83138618843392, -4490.644275026832, 0.008, 0.13, 0.96, 192.0, 0.0, 0.0, 0.0, 0.0, 0.0, 0.0, 0.0, 0.0, 0.0, 1.700578811299042E9, 0.0, 2023-11-21 10:00:11.299
191.0, -1652.8667989810467, -1472.3317590155316, -3041.781847689372, 1058.8691900812614, 3204.949582213114, 3404.6624189212826, 211.7604269695791, -4486.084519157948, 0.008, 0.13, 0.96, 192.0, 0.0, 0.0, 0.0, 0.0, 0.0, 0.0, 0.0, 0.0, 0.0, 1.700578811304026E9, 0.0, 2023-11-21 10:00:11.304
192.0, -1651.9280257139237, -1473.091718327012, -3042.8770831676825, 1055.404669690689, 3199.048721676913, 3395.185279272232, 204.20553734368534, -4493.728815761664, 0.008, 0.13, 0.96, 192.0, 0.0, 0.0, 0.0, 0.0, 0.0, 0.0, 0.0, 0.0, 0.0, 1.70057881130703E9, 0.0, 2023-11-21 10:00:11.307
193.0, -1654.431421092918, -1472.376462504442, -3047.5709495032966, 1051.1578382441805, 3195.4724425640634, 3390.312598980975, 203.5573367544814, -4495.315789617991, 0.008, 0.13, 0.96, 192.0, 0.0, 0.0, 0.0, 0.0, 0.0, 0.0, 0.0, 0.0, 0.0, 1.700578811311038E9, 0.0, 2023-11-21 10:00:11.311
194.0, -1652.1738949029323, -1477.8079364070818, -3051.6836704830735, 1052.1189632557587, 3196.880602464748, 3394.872354849858, 209.48054903513778, -4489.034949426049, 0.008, 0.13, 0.96, 192.0, 0.0, 0.0, 0.0, 0.0, 0.0, 0.0, 0.0, 0.0, 0.0, 1.700578811315113E9, 0.0, 2023-11-21 10:00:11.315
195.0, -1640.4839325528067, -1467.4143752353639, -3042.6088622342186, 1063.4736494390547, 3206.9612392140916, 3408.3951602453185, 217.63893576132486, -4483.871696456873, 0.008, 0.13, 0.96, 192.0, 0.0, 0.0, 0.0, 0.0, 0.0, 0.0, 0.0, 0.0, 0.0, 1.700578811319097E9, 0.0, 2023-11-21 10:00:11.319
196.0, -1645.2225023773317, -1476.802107906593, -3053.9635484175146, 1053.9071028121832, 3198.713445510083, 3407.098759066911, 213.99560141510983, -4488.722025003675, 0.008, 0.13, 0.96, 192.0, 0.0, 0.0, 0.0, 0.0, 0.0, 0.0, 0.0, 0.0, 0.0, 1.700578811323112E9, 0.0, 2023-11-21 10:00:11.323
197.0, -1649.9387204574014, -1481.3395120310204, -3060.4902577984644, 1043.468838151555, 3189.01278841648, 3400.5720496859612, 208.94410716821042, -4494.1758506507695, 0.008, 0.13, 0.96, 192.0, 0.0, 0.0, 0.0, 0.0, 0.0, 0.0, 0.0, 0.0, 0.0, 1.700578811327093E9, 0.0, 2023-11-21 10:00:11.327
198.0, -1653.0679646811445, -1475.4386514948192, -3053.3600513172214, 1047.693317853608, 3192.29849485141, 3401.421415975263, 211.17928161374113, -4493.393539594834, 0.008, 0.13, 0.96, 192.0, 0.0, 0.0, 0.0, 0.0, 0.0, 0.0, 0.0, 0.0, 0.0, 1.70057881133208E9, 0.0, 2023-11-21 10:00:11.332
199.0, -1656.688947282904, -1476.7797561621376, -3048.8002954483386, 1053.1247917562475, 3194.466614063575, 3399.76738688557, 208.96645891266573, -4490.756033749108, 0.006, 0.132, 0.9540000000000001, 192.0, 0.0, 48.0, 4.0, 32.0, 29.0, 208.0, 0.0, 0.0, 0.0, 1.700578811335059E9, 0.0, 2023-11-21 10:00:11.335
200.0, -1647.077697167122, -1473.024663093646, -3046.721583213995, 1056.5893121468202, 3198.333465854343, 3403.343665998419, 213.16858687026345, -4482.687054000742, 0.006, 0.132, 0.9540000000000001, 192.0, 0.0, 0.0, 0.0, 0.0, 0.0, 0.0, 0.0, 0.0, 0.0, 1.700578811339063E9, 0.0, 2023-11-21 10:00:11.339
201.0, -1646.9435867003904, -1474.6786921833389, -3042.050068622836, 1055.695242368608, 3198.802852487904, 3402.740168898126, 213.0121246590763, -4490.778385493563, 0.006, 0.132, 0.9540000000000001, 192.0, 0.0, 0.0, 0.0, 0.0, 0.0, 0.0, 0.0, 0.0, 0.0, 1.700578811343075E9, 0.0, 2023-11-21 10:00:11.343
202.0, -1651.212769891354, -1475.9750933617465, -3018.245460777934, 1066.4240797071552, 3206.581259558351, 3407.4340352337404, 212.3639240698724, -4494.645237284331, 0.006, 0.132, 0.9540000000000001, 192.0, 0.0, 0.0, 0.0, 0.0, 0.0, 0.0, 0.0, 0.0, 0.0, 1.700578811347063E9, 0.0, 2023-11-21 10:00:11.347
203.0, -1647.9270634564239, -1477.6514741958947, -3033.1317225851685, 1057.2151609915688, 3195.6289047752507, 3400.281477008042, 206.39600830030543, -4494.533478562054, 0.006, 0.132, 0.9540000000000001, 192.0, 0.0, 0.0, 0.0, 0.0, 0.0, 0.0, 0.0, 0.0, 0.0, 1.700578811351071E9, 0.0, 2023-11-21 10:00:11.351
204.0, -1660.8687234960466, -1492.023645880657, -3073.007234693436, 1037.5903293598092, 3182.396672057709, 3391.229020503643, 199.6904849637133, -4501.171946665281, 0.006, 0.132, 0.9540000000000001, 192.0, 0.0, 0.0, 0.0, 0.0, 0.0, 0.0, 0.0, 0.0, 0.0, 1.70057881135508E9, 0.0, 2023-11-21 10:00:11.355
205.0, -1655.370194360041, -1482.5688579760622, -3059.4173740646097, 1044.6758323521415, 3188.3198843383652, 3393.4641949491734, 201.14334835330826, -4496.813356496496, 0.006, 0.132, 0.9540000000000001, 192.0, 0.0, 0.0, 0.0, 0.0, 0.0, 0.0, 0.0, 0.0, 0.0, 1.700578811360075E9, 0.0, 2023-11-21 10:00:11.360
206.0, -1654.8784559820242, -1476.3550730174868, -3046.2521965804335, 1051.6495766221974, 3189.236305861033, 3391.7878141150254, 200.74101695311273, -4492.074786671971, 0.006, 0.132, 0.9540000000000001, 192.0, 0.0, 0.0, 0.0, 0.0, 0.0, 0.0, 0.0, 0.0, 0.0, 1.700578811363147E9, 0.0, 2023-11-21 10:00:11.363
207.0, -1651.1680664024434, -1478.7243579297494, -3045.715754713506, 1050.822562077351, 3188.431643060642, 3394.0229885605563, 202.57385999844792, -4485.145745890826, 0.006, 0.132, 0.9540000000000001, 192.0, 0.0, 0.0, 0.0, 0.0, 0.0, 0.0, 0.0, 0.0, 0.0, 1.700578811367126E9, 0.0, 2023-11-21 10:00:11.367
208.0, -1654.7443455152925, -1481.4512707532967, -3037.467961009498, 1054.6447103792084, 3188.6104570162843, 3396.9287153397463, 202.08212162043117, -4488.945542448228, 0.006, 0.132, 0.9540000000000001, 192.0, 0.0, 0.0, 0.0, 0.0, 0.0, 0.0, 0.0, 0.0, 0.0, 1.700578811371112E9, 0.0, 2023-11-21 10:00:11.371
209.0, -1657.5830170611164, -1479.8866486414254, -3044.1287808571797, 1051.9401493001162, 3187.425814560153, 3394.894706594313, 197.1423860958083, -4494.779347751063, 0.006, 0.132, 0.9560000000000001, 192.0, 0.0, 48.0, 4.0, 32.0, 29.0, 224.0, 0.0, 0.0, 0.0, 1.700578811375128E9, 0.0, 2023-11-21 10:00:11.375
210.0, -1646.787124489203, -1466.989692090713, -3045.0004988909363, 1056.0975737688034, 3195.7406634975273, 3401.7790438865477, 203.37852279883896, -4481.792984222529, 0.006, 0.132, 0.9560000000000001, 192.0, 0.0, 0.0, 0.0, 0.0, 0.0, 0.0, 0.0, 0.0, 0.0, 1.700578811379137E9, 0.0, 2023-11-21 10:00:11.379
211.0, -1644.8425227215914, -1470.118936314456, -3044.3522983017324, 1056.9245883136498, 3198.400521087709, 3401.5331746975394, 208.13944436781938, -4477.814373709485, 0.006, 0.132, 0.9560000000000001, 192.0, 0.0, 0.0, 0.0, 0.0, 0.0, 0.0, 0.0, 0.0, 0.0, 1.700578811383142E9, 0.0, 2023-11-21 10:00:11.383
212.0, -1651.9727292028344, -1470.7000816702941, -3045.6486994801403, 1057.3492714583006, 3200.1886606441335, 3401.019084575067, 210.95576416918806, -4483.961103434694, 0.006, 0.132, 0.9560000000000001, 192.0, 0.0, 0.0, 0.0, 0.0, 0.0, 0.0, 0.0, 0.0, 0.0, 1.700578811387158E9, 0.0, 2023-11-21 10:00:11.387
213.0, -1652.0621361806557, -1479.6184277079617, -3050.36491756021, 1054.4435446791106, 3197.8864309652367, 3395.967590328168, 207.40183680079423, -4486.240981369136, 0.006, 0.132, 0.9560000000000001, 192.0, 0.0, 0.0, 0.0, 0.0, 0.0, 0.0, 0.0, 0.0, 0.0, 1.700578811390155E9, 0.0, 2023-11-21 10:00:11.390
214.0, -1652.308005369664, -1473.8516776384924, -3043.45822852352, 1051.7613353444738, 3194.0866344078345, 3395.2970379945086, 206.15013911129705, -4484.497545301622, 0.006, 0.132, 0.9560000000000001, 192.0, 0.0, 0.0, 0.0, 0.0, 0.0, 0.0, 0.0, 0.0, 0.0, 1.700578811394172E9, 0.0, 2023-11-21 10:00:11.394
215.0, -1656.9348164719127, -1473.5611049605734, -3037.6691267095957, 1054.600006890298, 3191.717349495572, 3393.3077327379865, 203.40087454329426, -4490.040777926538, 0.006, 0.132, 0.9560000000000001, 192.0, 0.0, 0.0, 0.0, 0.0, 0.0, 0.0, 0.0, 0.0, 0.0, 1.700578811399205E9, 0.0, 2023-11-21 10:00:11.399
216.0, -1650.4751623243287, -1487.3297795450426, -3060.4902577984644, 1049.593216132309, 3193.1478611407115, 3393.6206571603607, 203.5573367544814, -4486.866830213885, 0.006, 0.132, 0.9560000000000001, 192.0, 0.0, 0.0, 0.0, 0.0, 0.0, 0.0, 0.0, 0.0, 0.0, 1.700578811403186E9, 0.0, 2023-11-21 10:00:11.403
217.0, -1631.1856068593988, -1470.2753985256434, -3043.5699872457967, 1061.0149575489709, 3204.2119746460885, 3403.276610765053, 210.62048800235846, -4478.4402225542335, 0.006, 0.132, 0.9560000000000001, 192.0, 0.0, 0.0, 0.0, 0.0, 0.0, 0.0, 0.0, 0.0, 0.0, 1.70057881140718E9, 0.0, 2023-11-21 10:00:11.407
218.0, -1647.3682698450411, -1474.3657677609644, -3044.374650046188, 1054.242378979013, 3196.4782710645522, 3397.8227851179586, 211.0675228914646, -4477.233228353647, 0.006, 0.132, 0.9560000000000001, 192.0, 0.0, 0.0, 0.0, 0.0, 0.0, 0.0, 0.0, 0.0, 0.0, 1.700578811411227E9, 0.0, 2023-11-21 10:00:11.411
219.0, -1656.308967627164, -1477.1373840734225, -3045.98397564697, 1055.9858150465268, 3198.758148998994, 3397.420453717763, 212.54273802551486, -4478.21670510968, 0.008, 0.13, 0.9580000000000001, 192.0, 0.0, 64.0, 4.0, 16.0, 29.0, 240.0, 0.0, 0.0, 0.0, 1.700578811415225E9, 0.0, 2023-11-21 10:00:11.415
220.0, -1656.9348164719127, -1475.4610032392745, -3042.1618273451127, 1057.2598644804793, 3198.5346315544407, 3397.778081629048, 211.24633684710705, -4483.782289479052, 0.008, 0.13, 0.9580000000000001, 192.0, 0.0, 0.0, 0.0, 0.0, 0.0, 0.0, 0.0, 0.0, 0.0, 1.700578811418226E9, 0.0, 2023-11-21 10:00:11.418
221.0, -1661.6510345519823, -1484.8487359105036, -3048.330908814777, 1053.1918469896134, 3194.8912972082258, 3400.348532241408, 209.12292112385288, -4487.582086036455, 0.008, 0.13, 0.9580000000000001, 192.0, 0.0, 0.0, 0.0, 0.0, 0.0, 0.0, 0.0, 0.0, 0.0, 1.700578811422223E9, 0.0, 2023-11-21 10:00:11.422
222.0, -1651.145714657988, -1482.8594306539812, -3051.1025251272354, 1050.9343207996276, 3193.326675096354, 3402.1813752867433, 210.1287496243417, -4486.240981369136, 0.008, 0.13, 0.9580000000000001, 192.0, 0.0, 0.0, 0.0, 0.0, 0.0, 0.0, 0.0, 0.0, 0.0, 1.700578811427227E9, 0.0, 2023-11-21 10:00:11.427
223.0, -1649.8716652240355, -1477.4279567513415, -3044.2181878350007, 1054.4211929346554, 3193.6619512631837, 3400.9520293417013, 210.68754323572438, -4485.078690657459, 0.008, 0.13, 0.9580000000000001, 192.0, 0.0, 0.0, 0.0, 0.0, 0.0, 0.0, 0.0, 0.0, 0.0, 1.700578811431295E9, 0.0, 2023-11-21 10:00:11.431
224.0, -1647.4800285673177, -1472.510572971174, -3041.692440711551, 1060.1208877707586, 3195.8300704753483, 3401.1308432973437, 210.4640257911713, -4484.989283679639, 0.008, 0.13, 0.9580000000000001, 192.0, 0.0, 0.0, 0.0, 0.0, 0.0, 0.0, 0.0, 0.0, 0.0, 1.700578811435272E9, 0.0, 2023-11-21 10:00:11.435
225.0, -1639.6569180079603, -1469.6495496808948, -3043.7711529458948, 1060.947902315605, 3195.718311753072, 3402.0696165644667, 209.81582520196739, -4483.625827267865, 0.008, 0.13, 0.9580000000000001, 192.0, 0.0, 0.0, 0.0, 0.0, 0.0, 0.0, 0.0, 0.0, 0.0, 1.700578811439298E9, 0.0, 2023-11-21 10:00:11.439
226.0, -1649.7822582462143, -1478.6125992074728, -3048.532074514875, 1055.0693935238594, 3191.069148906368, 3401.622581675361, 210.7769502135456, -4482.12826038936, 0.008, 0.13, 0.9580000000000001, 192.0, 0.0, 0.0, 0.0, 0.0, 0.0, 0.0, 0.0, 0.0, 0.0, 1.700578811442268E9, 0.0, 2023-11-21 10:00:11.442
227.0, -1647.4129733339516, -1480.736014930727, -3045.9616239025145, 1057.2598644804793, 3194.0419309189238, 3405.9811718441456, 211.31339208047297, -4481.837687711441, 0.008, 0.13, 0.9580000000000001, 192.0, 0.0, 0.0, 0.0, 0.0, 0.0, 0.0, 0.0, 0.0, 0.0, 1.700578811446294E9, 0.0, 2023-11-21 10:00:11.446
228.0, -1645.5577785441612, -1483.6640934543723, -3054.857618195727, 1052.0519080223928, 3190.979741928547, 3405.1765090437543, 210.4640257911713, -4482.21766736718, 0.008, 0.13, 0.9580000000000001, 192.0, 0.0, 0.0, 0.0, 0.0, 0.0, 0.0, 0.0, 0.0, 0.0, 1.700578811450276E9, 0.0, 2023-11-21 10:00:11.450
229.0, -1651.1680664024434, -1484.7816806771375, -3049.4931995264533, 1059.11505927027, 3196.7688437424713, 3409.490395723629, 213.99560141510983, -4480.608341766399, 0.004, 0.124, 0.9520000000000001, 192.0, 0.0, 32.0, 3.0, 224.0, 29.0, 192.0, 0.0, 0.0, 0.0, 1.700578811454303E9, 0.0, 2023-11-21 10:00:11.454
230.0, -1646.5412553001947, -1472.0188345931572, -3030.69538243954, 1059.8750185817503, 3189.884506450237, 3405.265916021576, 210.50872928008192, -4478.21670510968, 0.004, 0.124, 0.9520000000000001, 192.0, 0.0, 0.0, 0.0, 0.0, 0.0, 0.0, 0.0, 0.0, 0.0, 1.700578811459291E9, 0.0, 2023-11-21 10:00:11.459
231.0, -1648.9105402124574, -1477.6514741958947, -3056.3551850742324, 1046.1957509751023, 3181.234381346033, 3399.4321107187407, 205.79251120001211, -4484.341083090435, 0.004, 0.124, 0.9520000000000001, 192.0, 0.0, 0.0, 0.0, 0.0, 0.0, 0.0, 0.0, 0.0, 0.0, 1.700578811463303E9, 0.0, 2023-11-21 10:00:11.463
232.0, -1650.206941390865, -1478.8361166520258, -3047.4815425254756, 1058.2209894920575, 3195.3159803528765, 3406.0705788219666, 211.7380752251238, -4485.704539502209, 0.004, 0.124, 0.9520000000000001, 192.0, 0.0, 0.0, 0.0, 0.0, 0.0, 0.0, 0.0, 0.0, 0.0, 1.700578811467445E9, 0.0, 2023-11-21 10:00:11.467
233.0, -1651.4139355914517, -1470.2083432922773, -3030.5836237172634, 1065.1053267842922, 3190.5774105283513, 3399.9462008412124, 203.91496466576632, -4492.722987261175, 0.004, 0.124, 0.9520000000000001, 192.0, 0.0, 0.0, 0.0, 0.0, 0.0, 0.0, 0.0, 0.0, 0.0, 1.700578811470334E9, 0.0, 2023-11-21 10:00:11.470
234.0, -1655.5043048267728, -1489.5873057350286, -3054.6788042400844, 1051.9401493001162, 3180.6755877346504, 3395.76642462807, 201.6127349868697, -4494.533478562054, 0.004, 0.124, 0.9520000000000001, 192.0, 0.0, 0.0, 0.0, 0.0, 0.0, 0.0, 0.0, 0.0, 0.0, 1.700578811474393E9, 0.0, 2023-11-21 10:00:11.474
235.0, -1646.5859587891055, -1481.6300847089392, -3052.4436297945535, 1055.0693935238594, 3192.9243436961588, 3404.9529915992016, 215.5602235269813, -4482.843516211929, 0.004, 0.124, 0.9520000000000001, 192.0, 0.0, 0.0, 0.0, 0.0, 0.0, 0.0, 0.0, 0.0, 0.0, 1.700578811478406E9, 0.0, 2023-11-21 10:00:11.478
236.0, -1641.6462232644826, -1466.0732705680455, -3040.7089639555174, 1069.1509925307028, 3205.888355480237, 3408.5963259454165, 215.38140957133885, -4479.826030710463, 0.004, 0.124, 0.9520000000000001, 192.0, 0.0, 0.0, 0.0, 0.0, 0.0, 0.0, 0.0, 0.0, 0.0, 1.700578811484427E9, 0.0, 2023-11-21 10:00:11.484
237.0, -1641.7803337312143, -1485.9886748777242, -3055.1258391291904, 1059.49503892601, 3199.0263699324573, 3406.607020688894, 212.45333104769364, -4479.334292332446, 0.004, 0.124, 0.9520000000000001, 192.0, 0.0, 0.0, 0.0, 0.0, 0.0, 0.0, 0.0, 0.0, 0.0, 1.700578811487414E9, 0.0, 2023-11-21 10:00:11.487
238.0, -1652.442115836396, -1487.2403725672214, -3052.600092005741, 1052.633053378231, 3187.939904682625, 3401.4661194641735, 205.52429026654843, -4491.158365149304, 0.004, 0.124, 0.9520000000000001, 192.0, 0.0, 0.0, 0.0, 0.0, 0.0, 0.0, 0.0, 0.0, 0.0, 1.700578811491372E9, 0.0, 2023-11-21 10:00:11.491
239.0, -1647.2565111227646, -1477.8749916404477, -3051.7730774608945, 1054.9799865460382, 3193.326675096354, 3406.7858346445364, 210.62048800235846, -4485.83864996894, 0.004, 0.124, 0.9520000000000001, 192.0, 0.0, 0.0, 0.0, 0.0, 0.0, 0.0, 0.0, 0.0, 0.0, 1.700578811495457E9, 0.0, 2023-11-21 10:00:11.495
240.0, -1646.2283308778206, -1486.7709859336599, -3060.758478731928, 1047.4474486645995, 3195.6736082641614, 3404.5283084545504, 211.87218569185563, -4482.731757489652, 0.004, 0.12, 0.9560000000000001, 192.0, 0.0, 32.0, 3.0, 192.0, 29.0, 224.0, 0.0, 0.0, 0.0, 1.700578811498448E9, 0.0, 2023-11-21 10:00:11.498
241.0, -1645.3566128440634, -1491.3977970359085, -3061.1608101321235, 1045.145218985703, 3196.1206431532673, 3400.281477008042, 209.5476042685037, -4483.26819935658, 0.004, 0.12, 0.9560000000000001, 192.0, 0.0, 0.0, 0.0, 0.0, 0.0, 0.0, 0.0, 0.0, 0.0, 1.700578811502485E9, 0.0, 2023-11-21 10:00:11.502
242.0, -1638.3605168295524, -1478.8137649075707, -3049.001461148436, 1054.6894138681191, 3202.7367595120386, 3407.2775730225535, 215.33670608242824, -4477.635559753842, 0.004, 0.12, 0.9560000000000001, 192.0, 0.0, 0.0, 0.0, 0.0, 0.0, 0.0, 0.0, 0.0, 0.0, 1.700578811506498E9, 0.0, 2023-11-21 10:00:11.506
243.0, -1636.9076534399574, -1469.448383980797, -3039.6360802216627, 1058.8021348478956, 3204.5696025573734, 3408.7304364121483, 217.57188052795894, -4475.422737052767, 0.004, 0.12, 0.9560000000000001, 192.0, 0.0, 0.0, 0.0, 0.0, 0.0, 0.0, 0.0, 0.0, 0.0, 1.700578811510471E9, 0.0, 2023-11-21 10:00:11.510
244.0, -1647.6588425229602, -1472.443517737808, -3038.831417421272, 1056.9692918025603, 3200.2557158774994, 3405.8247096329583, 214.8896711933221, -4481.971798178172, 0.004, 0.12, 0.9560000000000001, 192.0, 0.0, 0.0, 0.0, 0.0, 0.0, 0.0, 0.0, 0.0, 0.0, 1.700578811515518E9, 0.0, 2023-11-21 10:00:11.515
245.0, -1646.4518483223735, -1480.95953237528, -3047.07921112528, 1054.7788208459403, 3199.1828321436446, 3403.321314253964, 213.81678745946735, -4486.643312769332, 0.004, 0.12, 0.9560000000000001, 192.0, 0.0, 0.0, 0.0, 0.0, 0.0, 0.0, 0.0, 0.0, 0.0, 1.700578811519486E9, 0.0, 2023-11-21 10:00:11.519
246.0, -1647.0106419337562, -1480.8701253974589, -3046.654527980629, 1052.0519080223928, 3196.142994897723, 3401.8013956310033, 212.49803453660425, -4489.258466870602, 0.004, 0.12, 0.9560000000000001, 192.0, 0.0, 0.0, 0.0, 0.0, 0.0, 0.0, 0.0, 0.0, 0.0, 1.700578811522441E9, 0.0, 2023-11-21 10:00:11.522
247.0, -1647.435325078407, -1470.6777299258388, -3035.657469708618, 1056.7681261024627, 3198.8252042323597, 3403.634238676338, 213.92854618174388, -4487.760899992097, 0.004, 0.12, 0.9560000000000001, 192.0, 0.0, 0.0, 0.0, 0.0, 0.0, 0.0, 0.0, 0.0, 0.0, 1.700578811526509E9, 0.0, 2023-11-21 10:00:11.526
248.0, -1644.0602116656557, -1469.9401223588136, -3045.6039959912296, 1056.9245883136498, 3205.1507479132115, 3411.1444248133216, 222.93629919723264, -4474.059280640993, 0.004, 0.12, 0.9560000000000001, 192.0, 0.0, 0.0, 0.0, 0.0, 0.0, 0.0, 0.0, 0.0, 0.0, 1.700578811530513E9, 0.0, 2023-11-21 10:00:11.530
249.0, -1646.0718686666332, -1474.6116369499728, -3046.2521965804335, 1059.2268179925463, 3208.324695625865, 3412.4631777361847, 223.7856654865343, -4476.629731253353, 0.004, 0.12, 0.9560000000000001, 192.0, 0.0, 0.0, 0.0, 0.0, 0.0, 0.0, 0.0, 0.0, 0.0, 1.700578811534547E9, 0.0, 2023-11-21 10:00:11.534
250.0, -1645.9377581999015, -1466.7661746461602, -3033.5787574742744, 1065.7982308624066, 3213.5773555728624, 3414.8548143929024, 223.62920327534715, -4481.569466777976, 0.002, 0.13, 0.9520000000000001, 192.0, 0.0, 16.0, 4.0, 16.0, 29.0, 192.0, 0.0, 0.0, 0.0, 1.700578811538458E9, 0.0, 2023-11-21 10:00:11.538
251.0, -1646.5189035557394, -1474.2763607831432, -3048.017984392403, 1054.8458760793062, 3205.5083758244964, 3408.0375323340336, 214.82261595995618, -4482.441184811733, 0.002, 0.13, 0.9520000000000001, 192.0, 0.0, 0.0, 0.0, 0.0, 0.0, 0.0, 0.0, 0.0, 0.0, 1.700578811542538E9, 0.0, 2023-11-21 10:00:11.542
252.0, -1645.9601099443569, -1473.6505119383946, -3051.9965949054476, 1049.369698687756, 3199.2945908659212, 3402.7848723870366, 210.57578451344784, -4480.764803977586, 0.002, 0.13, 0.9520000000000001, 192.0, 0.0, 0.0, 0.0, 0.0, 0.0, 0.0, 0.0, 0.0, 0.0, 1.700578811547594E9, 0.0, 2023-11-21 10:00:11.547
253.0, -1648.1282291565217, -1471.0800613260344, -3041.4242197780873, 1056.0305185354375, 3202.915573467681, 3404.349494498908, 215.8731479493556, -4478.1496498763145, 0.002, 0.13, 0.9520000000000001, 192.0, 0.0, 0.0, 0.0, 0.0, 0.0, 0.0, 0.0, 0.0, 0.0, 1.700578811550533E9, 0.0, 2023-11-21 10:00:11.550
254.0, -1658.499438583784, -1474.701043927794, -3039.79254243285, 1059.9420738151161, 3204.7037130241056, 3404.5059567100952, 216.34253458291707, -4487.98441743665, 0.002, 0.13, 0.9520000000000001, 192.0, 0.0, 0.0, 0.0, 0.0, 0.0, 0.0, 0.0, 0.0, 0.0, 1.700578811554553E9, 0.0, 2023-11-21 10:00:11.554
255.0, -1657.404203105474, -1476.9138666288695, -3045.8722169246935, 1053.9294545566386, 3194.3548553412984, 3396.0122938170784, 211.55926126948134, -4492.320655860979, 0.002, 0.13, 0.9520000000000001, 192.0, 0.0, 0.0, 0.0, 0.0, 0.0, 0.0, 0.0, 0.0, 0.0, 1.700578811558548E9, 0.0, 2023-11-21 10:00:11.558
0.0, -1650.0728309241333, -1475.8186311505594, -3050.789600704861, 1052.8565708227839, 3197.975837943058, 3402.7848723870366, 215.8954996938109, -4487.425623825267, 0.002, 0.13, 0.9520000000000001, 192.0, 0.0, 0.0, 0.0, 0.0, 0.0, 0.0, 0.0, 0.0, 0.0, 1.700578811562606E9, 0.0, 2023-11-21 10:00:11.562
1.0, -1645.7365924998037, -1474.2987125275986, -3044.8887401686598, 1057.9527685585938, 3203.317904867876, 3405.0200468325675, 215.9178514382662, -4482.798812723018, 0.002, 0.13, 0.9520000000000001, 192.0, 0.0, 0.0, 0.0, 0.0, 0.0, 0.0, 0.0, 0.0, 0.0, 1.70057881156653E9, 0.0, 2023-11-21 10:00:11.566
2.0, -1655.3478426155857, -1484.2675905546655, -3054.4105833066205, 1054.9799865460382, 3202.692056023128, 3403.924811354257, 216.67781074974667, -4481.770632478075, 0.002, 0.13, 0.9520000000000001, 192.0, 0.0, 0.0, 0.0, 0.0, 0.0, 0.0, 0.0, 0.0, 0.0, 1.700578811570549E9, 0.0, 2023-11-21 10:00:11.570
3.0, -1657.1359821720102, -1481.2948085421096, -3062.993653177459, 1050.755506843985, 3199.6075152882954, 3400.0803113079446, 213.97324967065452, -4483.804641223507, 0.002, 0.13, 0.9520000000000001, 192.0, 0.0, 0.0, 0.0, 0.0, 0.0, 0.0, 0.0, 0.0, 0.0, 1.700578811575592E9, 0.0, 2023-11-21 10:00:11.575
4.0, -1643.9708046878345, -1468.0849275690232, -3042.497103511942, 1059.8973703262056, 3208.548213070418, 3411.122073068866, 219.9411654402215, -4473.83576319644, 0.004, 0.132, 0.9560000000000001, 192.0, 0.0, 32.0, 4.0, 32.0, 29.0, 224.0, 0.0, 0.0, 0.0, 1.700578811578639E9, 0.0, 2023-11-21 10:00:11.578
5.0, -1633.4431330493849, -1457.3113867415652, -3023.5204724693863, 1071.4532222095993, 3215.1866811736445, 3418.162872572288, 220.79053172952317, -4467.353757304401, 0.004, 0.132, 0.9560000000000001, 192.0, 0.0, 0.0, 0.0, 0.0, 0.0, 0.0, 0.0, 0.0, 0.0, 1.700578811582699E9, 0.0, 2023-11-21 10:00:11.582
6.0, -1642.3614790870524, -1458.9430640868027, -3029.8013126613278, 1070.4473937091104, 3209.6881520376387, 3415.637125448838, 215.69433399371314, -4468.31488231598, 0.004, 0.132, 0.9560000000000001, 192.0, 0.0, 0.0, 0.0, 0.0, 0.0, 0.0, 0.0, 0.0, 0.0, 1.700578811586643E9, 0.0, 2023-11-21 10:00:11.586
7.0, -1663.729746786326, -1474.6786921833389, -3042.3182895562995, 1059.7185563705632, 3202.982628701047, 3409.6021544459054, 209.8828804353333, -4483.491716801133, 0.004, 0.132, 0.9560000000000001, 192.0, 0.0, 0.0, 0.0, 0.0, 0.0, 0.0, 0.0, 0.0, 0.0, 1.70057881159064E9, 0.0, 2023-11-21 10:00:11.590
8.0, -1668.2000956773873, -1491.576610991551, -3056.399888563143, 1046.8663033087616, 3193.684303007639, 3403.8577561208913, 207.9382786677216, -4486.218629624681, 0.004, 0.132, 0.9560000000000001, 192.0, 0.0, 0.0, 0.0, 0.0, 0.0, 0.0, 0.0, 0.0, 0.0, 1.700578811596682E9, 0.0, 2023-11-21 10:00:11.596
9.0, -1654.3643658595522, -1474.991616605713, -3044.9557954020256, 1054.9799865460382, 3196.142994897723, 3405.645895677316, 213.54856652600367, -4476.875600442362, 0.004, 0.132, 0.9560000000000001, 192.0, 0.0, 0.0, 0.0, 0.0, 0.0, 0.0, 0.0, 0.0, 0.0, 1.700578811599653E9, 0.0, 2023-11-21 10:00:11.599
10.0, -1654.118496670544, -1471.124764814945, -3041.446571522543, 1055.851704579795, 3197.037064675935, 3404.48360496564, 213.14623512580815, -4478.9096091877955, 0.004, 0.132, 0.9560000000000001, 192.0, 0.0, 0.0, 0.0, 0.0, 0.0, 0.0, 0.0, 0.0, 0.0, 1.700578811603637E9, 0.0, 2023-11-21 10:00:11.603
11.0, -1653.5597030591612, -1466.1626775458667, -3025.2862602813557, 1062.6019314052978, 3195.427739075153, 3402.2707822645643, 212.20746185868526, -4483.178792378759, 0.004, 0.132, 0.9560000000000001, 192.0, 0.0, 0.0, 0.0, 0.0, 0.0, 0.0, 0.0, 0.0, 0.0, 1.70057881160662E9, 0.0, 2023-11-21 10:00:11.606
12.0, -1647.1894558893987, -1489.6320092239391, -3072.0237579374025, 1047.0227655199487, 3194.0642826633793, 3406.9870003446345, 221.34932534090584, -4474.551019019011, 0.004, 0.132, 0.9560000000000001, 192.0, 0.0, 0.0, 0.0, 0.0, 0.0, 0.0, 0.0, 0.0, 0.0, 1.700578811610691E9, 0.0, 2023-11-21 10:00:11.610
13.0, -1653.2244268923316, -1488.2238493232549, -3067.620464279707, 1047.8274283203398, 3201.5074135669965, 3412.48552948064, 222.37750558584997, -4481.07772839996, 0.004, 0.132, 0.9560000000000001, 192.0, 0.0, 0.0, 0.0, 0.0, 0.0, 0.0, 0.0, 0.0, 0.0, 1.700578811614672E9, 0.0, 2023-11-21 10:00:11.614
14.0, -1653.112668170055, -1483.440576009819, -3045.179312846579, 1054.9576348015828, 3199.652218777206, 3411.613811446883, 213.79443571501204, -4488.856135470407, 0.006, 0.128, 0.962, 192.0, 0.0, 48.0, 4.0, 0.0, 30.0, 16.0, 0.0, 0.0, 0.0, 1.700578811618721E9, 0.0, 2023-11-21 10:00:11.618
15.0, -1650.1398861574992, -1475.0363200946238, -3032.371763273688, 1061.082012782337, 3202.982628701047, 3416.0171051045786, 215.15789212678578, -4486.084519157948, 0.006, 0.128, 0.962, 192.0, 0.0, 0.0, 0.0, 0.0, 0.0, 0.0, 0.0, 0.0, 0.0, 1.700578811622713E9, 0.0, 2023-11-21 10:00:11.622
16.0, -1643.501418054273, -1465.3133112565652, -3036.3950772756434, 1063.4736494390547, 3204.659009535195, 3417.313506282986, 219.11415089537513, -4477.277931842557, 0.006, 0.128, 0.962, 192.0, 0.0, 0.0, 0.0, 0.0, 0.0, 0.0, 0.0, 0.0, 0.0, 1.700578811626695E9, 0.0, 2023-11-21 10:00:11.626
17.0, -1651.145714657988, -1485.2063638217885, -3062.5466182883524, 1050.1967132326024, 3197.9534861986026, 3408.2834015230424, 217.95186018369918, -4476.69678648672, 0.006, 0.128, 0.962, 192.0, 0.0, 0.0, 0.0, 0.0, 0.0, 0.0, 0.0, 0.0, 0.0, 1.700578811631725E9, 0.0, 2023-11-21 10:00:11.631
18.0, -1652.2409501362981, -1486.703930700294, -3057.5845310192744, 1051.4484109220996, 3199.361646099287, 3407.9928288451233, 216.63310726083606, -4483.379958078856, 0.006, 0.128, 0.962, 192.0, 0.0, 0.0, 0.0, 0.0, 0.0, 0.0, 0.0, 0.0, 0.0, 1.700578811634734E9, 0.0, 2023-11-21 10:00:11.634
19.0, -1647.4129733339516, -1478.7467096742046, -3053.0471268948468, 1047.0898207533146, 3196.9253059536586, 3405.802357888503, 213.21329035917407, -4484.519897046077, 0.006, 0.128, 0.962, 192.0, 0.0, 0.0, 0.0, 0.0, 0.0, 0.0, 0.0, 0.0, 0.0, 1.700578811637701E9, 0.0, 2023-11-21 10:00:11.637
20.0, -1648.083525667611, -1477.092680584512, -3056.824571707794, 1045.793419574907, 3195.6959600086166, 3409.222174790165, 213.6603252482802, -4481.50241154461, 0.006, 0.128, 0.962, 192.0, 0.0, 0.0, 0.0, 0.0, 0.0, 0.0, 0.0, 0.0, 0.0, 1.700578811642681E9, 0.0, 2023-11-21 10:00:11.642
21.0, -1648.0388221787005, -1487.2850760561319, -3062.680728755084, 1047.4250969201444, 3194.1536896412003, 3413.066674836478, 216.52134853855952, -4479.60251326591, 0.006, 0.128, 0.962, 192.0, 0.0, 0.0, 0.0, 0.0, 0.0, 0.0, 0.0, 0.0, 0.0, 1.7005788116467E9, 0.0, 2023-11-21 10:00:11.646
22.0, -1647.4576768228624, -1489.2967330571096, -3060.8702374542045, 1049.6155678767643, 3192.6337710182397, 3410.2950585240196, 213.12388338135284, -4483.335254589946, 0.006, 0.128, 0.962, 192.0, 0.0, 0.0, 0.0, 0.0, 0.0, 0.0, 0.0, 0.0, 0.0, 1.700578811650704E9, 0.0, 2023-11-21 10:00:11.650
23.0, -1654.2302553928205, -1482.121823086956, -3053.2706443394, 1056.5446086579095, 3199.115776910279, 3412.2396602916315, 212.3639240698724, -4486.688016258242, 0.006, 0.128, 0.962, 192.0, 0.0, 0.0, 0.0, 0.0, 0.0, 0.0, 0.0, 0.0, 0.0, 1.700578811654721E9, 0.0, 2023-11-21 10:00:11.654
24.0, -1654.7443455152925, -1477.6291224514393, -3048.107391370224, 1058.7127278700743, 3199.2945908659212, 3411.0103143465894, 216.20842411618523, -4487.827955225463, 0.008, 0.134, 0.962, 192.0, 0.0, 64.0, 4.0, 48.0, 30.0, 16.0, 0.0, 0.0, 0.0, 1.700578811659745E9, 0.0, 2023-11-21 10:00:11.659
25.0, -1647.591787289594, -1480.668959697361, -3049.8731791821933, 1056.0528702798929, 3196.5676780423737, 3406.875241622358, 216.99073517212096, -4483.536420290044, 0.008, 0.134, 0.962, 192.0, 0.0, 0.0, 0.0, 0.0, 0.0, 0.0, 0.0, 0.0, 0.0, 1.700578811662722E9, 0.0, 2023-11-21 10:00:11.662
26.0, -1656.308967627164, -1483.8205556655594, -3048.1297431146795, 1056.8128295913732, 3198.177003643156, 3404.349494498908, 215.5602235269813, -4487.112699402893, 0.008, 0.134, 0.962, 192.0, 0.0, 0.0, 0.0, 0.0, 0.0, 0.0, 0.0, 0.0, 0.0, 1.700578811665746E9, 0.0, 2023-11-21 10:00:11.665
27.0, -1662.5898078191053, -1477.3609015179757, -3044.5981674907407, 1058.1986377476023, 3199.741625755027, 3403.4107212317854, 214.5990985154031, -4490.040777926538, 0.008, 0.134, 0.962, 192.0, 0.0, 0.0, 0.0, 0.0, 0.0, 0.0, 0.0, 0.0, 0.0, 1.700578811670792E9, 0.0, 2023-11-21 10:00:11.670
28.0, -1639.1875313743988, -1456.7525931301825, -3024.0792660807692, 1073.3531204883004, 3213.040913705935, 3416.3747330158635, 226.6243370323583, -4478.17200162077, 0.008, 0.134, 0.962, 192.0, 0.0, 0.0, 0.0, 0.0, 0.0, 0.0, 0.0, 0.0, 0.0, 1.700578811674841E9, 0.0, 2023-11-21 10:00:11.674
29.0, -1635.5218452837285, -1457.8031251195819, -3036.529187742375, 1066.9381698296274, 3206.8941839807253, 3412.9772678586564, 227.76427599957896, -4473.500487029611, 0.008, 0.134, 0.962, 192.0, 0.0, 0.0, 0.0, 0.0, 0.0, 0.0, 0.0, 0.0, 0.0, 1.700578811678863E9, 0.0, 2023-11-21 10:00:11.678
30.0, -1665.47318285384, -1486.3686545334645, -3062.0995833992465, 1050.6660998661637, 3192.0973291513124, 3398.962724085179, 216.4542933051936, -4490.487812815644, 0.008, 0.134, 0.962, 192.0, 0.0, 0.0, 0.0, 0.0, 0.0, 0.0, 0.0, 0.0, 0.0, 1.700578811682821E9, 0.0, 2023-11-21 10:00:11.682
31.0, -1651.950377458379, -1484.2452388102101, -3056.0646123963134, 1055.695242368608, 3192.522012295963, 3400.5049944525954, 216.4319415607383, -4488.543211048032, 0.008, 0.134, 0.962, 192.0, 0.0, 0.0, 0.0, 0.0, 0.0, 0.0, 0.0, 0.0, 0.0, 1.700578811685846E9, 0.0, 2023-11-21 10:00:11.685
32.0, -1648.239987878798, -1483.0829480985342, -3056.7351647299724, 1055.2035039905911, 3193.3490268408095, 3405.7800061440475, 220.5223107960595, -4473.522838774066, 0.008, 0.134, 0.962, 192.0, 0.0, 0.0, 0.0, 0.0, 0.0, 0.0, 0.0, 0.0, 0.0, 1.700578811689861E9, 0.0, 2023-11-21 10:00:11.689
33.0, -1653.47029608134, -1479.216096307766, -3049.180275104079, 1057.371623202756, 3194.466614063575, 3406.2717445220646, 220.5223107960595, -4481.167135377781, 0.008, 0.134, 0.962, 192.0, 0.0, 0.0, 0.0, 0.0, 0.0, 0.0, 0.0, 0.0, 0.0, 1.700578811693879E9, 0.0, 2023-11-21 10:00:11.693
34.0, -1657.47125833884, -1477.8079364070818, -3048.8449989372493, 1055.4940766685102, 3196.6123815312844, 3406.0705788219666, 219.0023921730986, -4483.715234245687, 0.006, 0.138, 0.96, 192.0, 0.0, 48.0, 4.0, 80.0, 30.0, 0.0, 0.0, 0.0, 0.0, 1.700578811698846E9, 0.0, 2023-11-21 10:00:11.698
35.0, -1649.6034442905718, -1467.0790990685343, -3042.8323796787718, 1055.851704579795, 3197.461747820586, 3408.6186776898717, 220.18703462922988, -4479.043719654527, 0.006, 0.138, 0.96, 192.0, 0.0, 0.0, 0.0, 0.0, 0.0, 0.0, 0.0, 0.0, 0.0, 1.700578811702898E9, 0.0, 2023-11-21 10:00:11.702
36.0, -1656.3983746049853, -1485.5639917330734, -3046.4757140249867, 1054.4435446791106, 3194.82424197486, 3405.7800061440475, 215.69433399371314, -4482.955274934206, 0.006, 0.138, 0.96, 192.0, 0.0, 0.0, 0.0, 0.0, 0.0, 0.0, 0.0, 0.0, 0.0, 1.700578811706901E9, 0.0, 2023-11-21 10:00:11.706
37.0, -1651.8833222250132, -1483.9099626433806, -3055.6622809961177, 1052.431887678133, 3197.037064675935, 3407.9481253562126, 217.90715669478854, -4477.233228353647, 0.006, 0.138, 0.96, 192.0, 0.0, 0.0, 0.0, 0.0, 0.0, 0.0, 0.0, 0.0, 0.0, 1.700578811710882E9, 0.0, 2023-11-21 10:00:11.710
38.0, -1651.5703978026388, -1475.349244516998, -3047.973280903492, 1057.7963063474067, 3199.652218777206, 3410.8762038798577, 216.67781074974667, -4478.395519065323, 0.006, 0.138, 0.96, 192.0, 0.0, 0.0, 0.0, 0.0, 0.0, 0.0, 0.0, 0.0, 0.0, 1.700578811713886E9, 0.0, 2023-11-21 10:00:11.713
39.0, -1650.9221972134349, -1478.7914131631153, -3048.7332402149727, 1056.723422613552, 3196.500622809008, 3409.0433608345224, 217.88480495033323, -4481.50241154461, 0.006, 0.138, 0.96, 192.0, 0.0, 0.0, 0.0, 0.0, 0.0, 0.0, 0.0, 0.0, 0.0, 1.700578811717919E9, 0.0, 2023-11-21 10:00:11.717
40.0, -1651.1680664024434, -1477.0479770956013, -3043.0335453788693, 1056.432849935633, 3192.7008262516056, 3410.3621137573855, 221.215214874174, -4481.591818522432, 0.006, 0.138, 0.96, 192.0, 0.0, 0.0, 0.0, 0.0, 0.0, 0.0, 0.0, 0.0, 0.0, 1.700578811721897E9, 0.0, 2023-11-21 10:00:11.721
41.0, -1653.604406548072, -1474.6339886944281, -3028.214338805001, 1059.9420738151161, 3193.617247774273, 3412.932564369746, 219.80705497348964, -4482.687054000742, 0.006, 0.138, 0.96, 192.0, 0.0, 0.0, 0.0, 0.0, 0.0, 0.0, 0.0, 0.0, 0.0, 1.700578811725907E9, 0.0, 2023-11-21 10:00:11.725
42.0, -1646.407144833463, -1475.3268927725426, -3042.3182895562995, 1057.5727889028537, 3195.070111163868, 3410.6079829463943, 219.3376683399282, -4479.043719654527, 0.006, 0.138, 0.96, 192.0, 0.0, 0.0, 0.0, 0.0, 0.0, 0.0, 0.0, 0.0, 0.0, 1.700578811730922E9, 0.0, 2023-11-21 10:00:11.730
43.0, -1640.2827668527088, -1472.1305933154338, -3042.0947721117464, 1061.6631581381748, 3196.9476576981137, 3411.8596806358914, 222.1092846523863, -4474.685129485742, 0.006, 0.138, 0.96, 192.0, 0.0, 0.0, 0.0, 0.0, 0.0, 0.0, 0.0, 0.0, 0.0, 1.700578811734946E9, 0.0, 2023-11-21 10:00:11.734
44.0, -1645.9154064554461, -1456.5290756856293, -3014.825643876272, 1072.9731408325601, 3204.100215923812, 3414.743055670626, 223.91977595326617, -4476.137992875337, 0.008, 0.138, 0.9520000000000001, 192.0, 0.0, 64.0, 4.0, 80.0, 29.0, 192.0, 0.0, 0.0, 0.0, 1.700578811738953E9, 0.0, 2023-11-21 10:00:11.738
45.0, -1649.4246303349294, -1464.9109798563695, -3023.051085835825, 1069.2180477640686, 3200.0545501774013, 3409.713913168182, 219.40472357329412, -4481.569466777976, 0.008, 0.138, 0.9520000000000001, 192.0, 0.0, 0.0, 0.0, 0.0, 0.0, 0.0, 0.0, 0.0, 0.0, 1.700578811741955E9, 0.0, 2023-11-21 10:00:11.741
46.0, -1653.1350199145104, -1490.6601894688833, -3067.240484623967, 1048.2968149539013, 3187.5599250268847, 3402.002561331101, 212.20746185868526, -4484.519897046077, 0.008, 0.138, 0.9520000000000001, 192.0, 0.0, 0.0, 0.0, 0.0, 0.0, 0.0, 0.0, 0.0, 0.0, 1.70057881174596E9, 0.0, 2023-11-21 10:00:11.745
47.0, -1655.5490083156835, -1486.189840577822, -3064.0665369113135, 1044.4076114186778, 3183.849535447304, 3402.6954654092156, 214.15206362629698, -4480.74245223313, 0.008, 0.138, 0.9520000000000001, 192.0, 0.0, 0.0, 0.0, 0.0, 0.0, 0.0, 0.0, 0.0, 0.0, 1.700578811749992E9, 0.0, 2023-11-21 10:00:11.749
48.0, -1654.3420141150968, -1490.637837724428, -3068.0004439354475, 1044.787591074418, 3184.497736036508, 3399.0744828074558, 212.40862755878302, -4482.687054000742, 0.008, 0.138, 0.9520000000000001, 192.0, 0.0, 0.0, 0.0, 0.0, 0.0, 0.0, 0.0, 0.0, 0.0, 1.700578811754005E9, 0.0, 2023-11-21 10:00:11.754
49.0, -1651.4139355914517, -1489.184974334833, -3066.5475805458523, 1052.7448121005073, 3191.7620529844826, 3406.3611514998856, 218.80122647300084, -4477.188524864737, 0.008, 0.138, 0.9520000000000001, 192.0, 0.0, 0.0, 0.0, 0.0, 0.0, 0.0, 0.0, 0.0, 0.0, 1.700578811758984E9, 0.0, 2023-11-21 10:00:11.758
50.0, -1664.6461683089935, -1484.1781835768443, -3046.989804147459, 1065.5970651623088, 3198.1546518987006, 3412.8655091363803, 219.53883404002596, -4479.2001818657145, 0.008, 0.138, 0.9520000000000001, 192.0, 0.0, 0.0, 0.0, 0.0, 0.0, 0.0, 0.0, 0.0, 0.0, 1.700578811763E9, 0.0, 2023-11-21 10:00:11.763
51.0, -1658.5217903282394, -1472.1082415709784, -3027.566138215797, 1068.145164030214, 3197.171175142667, 3410.160948057288, 220.29879335150642, -4475.400385308312, 0.008, 0.138, 0.9520000000000001, 192.0, 0.0, 0.0, 0.0, 0.0, 0.0, 0.0, 0.0, 0.0, 0.0, 1.700578811767005E9, 0.0, 2023-11-21 10:00:11.767
52.0, -1659.1029356840772, -1467.8390583800149, -3033.1987778185344, 1066.6475971517084, 3196.7017885091054, 3407.9704771006677, 218.57770902844777, -4480.563638277488, 0.008, 0.138, 0.9520000000000001, 192.0, 0.0, 0.0, 0.0, 0.0, 0.0, 0.0, 0.0, 0.0, 0.0, 1.700578811770015E9, 0.0, 2023-11-21 10:00:11.770
53.0, -1655.2807873822198, -1483.8652591544699, -3070.3473771032545, 1055.3823179462336, 3195.8300704753483, 3410.67503817976, 223.1374648973304, -4478.976664421161, 0.008, 0.138, 0.9520000000000001, 192.0, 0.0, 0.0, 0.0, 0.0, 0.0, 0.0, 0.0, 0.0, 0.0, 1.700578811774006E9, 0.0, 2023-11-21 10:00:11.774
54.0, -1651.8833222250132, -1489.0508638681013, -3071.9567027040366, 1052.3201289558565, 3198.48992806553, 3411.39029400233, 226.46787482117116, -4473.411080051789, 0.008, 0.134, 0.964, 192.0, 0.0, 64.0, 4.0, 48.0, 30.0, 32.0, 0.0, 0.0, 0.0, 1.70057881177802E9, 0.0, 2023-11-21 10:00:11.778
55.0, -1653.0679646811445, -1488.7155877012715, -3065.005310178436, 1056.432849935633, 3202.0885589228346, 3411.0103143465894, 223.20452013069632, -4477.523801031566, 0.008, 0.134, 0.964, 192.0, 0.0, 0.0, 0.0, 0.0, 0.0, 0.0, 0.0, 0.0, 0.0, 1.700578811782026E9, 0.0, 2023-11-21 10:00:11.782
56.0, -1652.5538745586723, -1483.7311486877381, -3057.7409932304613, 1056.2987394689012, 3196.9029542092035, 3407.836366633936, 219.20355787319636, -4481.033024911049, 0.008, 0.134, 0.964, 192.0, 0.0, 0.0, 0.0, 0.0, 0.0, 0.0, 0.0, 0.0, 0.0, 1.700578811787059E9, 0.0, 2023-11-21 10:00:11.787
57.0, -1650.8104384911585, -1482.0100643646795, -3056.2210746075007, 1051.6048731332867, 3196.7688437424713, 3406.584668944439, 218.3094880949841, -4478.596684765421, 0.008, 0.134, 0.964, 192.0, 0.0, 0.0, 0.0, 0.0, 0.0, 0.0, 0.0, 0.0, 0.0, 1.700578811791057E9, 0.0, 2023-11-21 10:00:11.791
58.0, -1646.3177378556418, -1477.6961776848052, -3049.4708477819977, 1054.242378979013, 3202.2226693895664, 3411.703218424704, 221.5281392965483, -4474.461612041189, 0.008, 0.134, 0.964, 192.0, 0.0, 0.0, 0.0, 0.0, 0.0, 0.0, 0.0, 0.0, 0.0, 1.70057881179406E9, 0.0, 2023-11-21 10:00:11.794
59.0, -1649.022298934734, -1476.2433142952102, -3048.465019281509, 1055.4270214351443, 3199.3392943548315, 3410.093892823922, 221.43873231872706, -4476.137992875337, 0.008, 0.134, 0.964, 192.0, 0.0, 0.0, 0.0, 0.0, 0.0, 0.0, 0.0, 0.0, 0.0, 1.700578811798101E9, 0.0, 2023-11-21 10:00:11.798
60.0, -1655.3031391266752, -1480.95953237528, -3050.1637518601124, 1054.756469101485, 3198.1546518987006, 3409.088064323433, 221.46108406318237, -4478.1496498763145, 0.008, 0.134, 0.964, 192.0, 0.0, 0.0, 0.0, 0.0, 0.0, 0.0, 0.0, 0.0, 0.0, 1.700578811802093E9, 0.0, 2023-11-21 10:00:11.802
61.0, -1655.5490083156835, -1479.573724219051, -3047.347432058744, 1055.7399458575185, 3202.8708699787703, 3410.518575968573, 227.51840681057058, -4476.182696364248, 0.008, 0.134, 0.964, 192.0, 0.0, 0.0, 0.0, 0.0, 0.0, 0.0, 0.0, 0.0, 0.0, 1.700578811806107E9, 0.0, 2023-11-21 10:00:11.806
62.0, -1650.4751623243287, -1478.2326195517326, -3047.2133215920117, 1055.9634633020717, 3204.815471746382, 3409.423340490263, 228.01014518858736, -4480.720100488675, 0.008, 0.134, 0.964, 192.0, 0.0, 0.0, 0.0, 0.0, 0.0, 0.0, 0.0, 0.0, 0.0, 1.700578811810112E9, 0.0, 2023-11-21 10:00:11.810
63.0, -1648.7540780012703, -1477.4279567513415, -3043.726449456984, 1055.0917452683145, 3201.1274339112565, 3407.0317038335447, 224.16564514227454, -4483.089385400937, 0.008, 0.134, 0.964, 192.0, 0.0, 0.0, 0.0, 0.0, 0.0, 0.0, 0.0, 0.0, 0.0, 1.700578811814125E9, 0.0, 2023-11-21 10:00:11.814
64.0, -1652.889150725502, -1484.5134597436738, -3045.8051616913276, 1054.912931312672, 3197.7299687540494, 3406.2717445220646, 221.14815964080807, -4483.826992967963, 0.01, 0.14, 0.9560000000000001, 192.0, 0.0, 80.0, 4.0, 96.0, 29.0, 224.0, 0.0, 0.0, 0.0, 1.700578811819141E9, 0.0, 2023-11-21 10:00:11.819
65.0, -1649.9163687129462, -1475.7515759171936, -3049.0908681262576, 1052.4542394225884, 3195.9865326865356, 3408.573974200961, 221.5281392965483, -4481.368301077879, 0.01, 0.14, 0.9560000000000001, 192.0, 0.0, 0.0, 0.0, 0.0, 0.0, 0.0, 0.0, 0.0, 0.0, 1.7005788118221E9, 0.0, 2023-11-21 10:00:11.822
66.0, -1648.4635053233512, -1473.6281601939393, -3049.627309993185, 1051.627224877742, 3198.780500743449, 3411.747921913615, 223.69625850871307, -4479.557809776999, 0.01, 0.14, 0.9560000000000001, 192.0, 0.0, 0.0, 0.0, 0.0, 0.0, 0.0, 0.0, 0.0, 0.0, 1.700578811826113E9, 0.0, 2023-11-21 10:00:11.826
67.0, -1656.2866158827087, -1479.8195934080593, -3039.725487199484, 1052.0966115113035, 3197.841727476326, 3409.825671890458, 220.32114509596173, -4480.74245223313, 0.01, 0.14, 0.9560000000000001, 192.0, 0.0, 0.0, 0.0, 0.0, 0.0, 0.0, 0.0, 0.0, 0.0, 1.700578811830141E9, 0.0, 2023-11-21 10:00:11.830
68.0, -1645.5354267997059, -1458.317215242054, -3021.4194084905876, 1064.881809339739, 3206.1789281581555, 3418.319334783475, 229.75358125610128, -4469.0524898830045, 0.01, 0.14, 0.9560000000000001, 192.0, 0.0, 0.0, 0.0, 0.0, 0.0, 0.0, 0.0, 0.0, 0.0, 1.700578811834219E9, 0.0, 2023-11-21 10:00:11.834
69.0, -1639.9698424303344, -1451.2093605052664, -3028.6390219496516, 1073.5319344439429, 3215.2760881514655, 3427.081218609955, 239.72245928316823, -4463.97864389165, 0.01, 0.14, 0.9560000000000001, 192.0, 0.0, 0.0, 0.0, 0.0, 0.0, 0.0, 0.0, 0.0, 0.0, 1.70057881183819E9, 0.0, 2023-11-21 10:00:11.838
70.0, -1652.5538745586723, -1485.3628260329756, -3056.5116472854197, 1054.622358634753, 3198.177003643156, 3408.417511989774, 220.74582824061255, -4482.17296387827, 0.01, 0.14, 0.9560000000000001, 192.0, 0.0, 0.0, 0.0, 0.0, 0.0, 0.0, 0.0, 0.0, 0.0, 1.700578811842181E9, 0.0, 2023-11-21 10:00:11.842
71.0, -1655.4596013378623, -1476.3774247619422, -3047.07921112528, 1059.49503892601, 3199.8533844773037, 3408.551622456506, 219.89646195131087, -4478.17200162077, 0.01, 0.14, 0.9560000000000001, 192.0, 0.0, 0.0, 0.0, 0.0, 0.0, 0.0, 0.0, 0.0, 0.0, 1.700578811847189E9, 0.0, 2023-11-21 10:00:11.847
72.0, -1661.2934066406974, -1480.7807184196377, -3051.504856527431, 1059.919722070661, 3197.171175142667, 3406.316448010975, 217.9965636726098, -4479.155478376803, 0.01, 0.14, 0.9560000000000001, 192.0, 0.0, 0.0, 0.0, 0.0, 0.0, 0.0, 0.0, 0.0, 0.0, 1.700578811850194E9, 0.0, 2023-11-21 10:00:11.850
73.0, -1655.1243251710328, -1484.96049463278, -3059.305615342333, 1054.9576348015828, 3192.946695440614, 3408.3057532674975, 221.93047069674384, -4468.828972438451, 0.01, 0.14, 0.9560000000000001, 192.0, 0.0, 0.0, 0.0, 0.0, 0.0, 0.0, 0.0, 0.0, 0.0, 1.70057881185418E9, 0.0, 2023-11-21 10:00:11.854
74.0, -1655.5490083156835, -1488.3579597899866, -3059.1938566200565, 1049.3249951988453, 3186.1964686151114, 3404.640067176827, 217.34836308340587, -4473.344024818423, 0.01, 0.134, 0.9580000000000001, 192.0, 0.0, 80.0, 4.0, 48.0, 29.0, 240.0, 0.0, 0.0, 0.0, 1.700578811858193E9, 0.0, 2023-11-21 10:00:11.858
75.0, -1661.047537451689, -1485.3404742885202, -3034.69634469704, 1059.5844459038312, 3195.0030559305023, 3407.478738722651, 216.49899679410422, -4480.340120832935, 0.01, 0.134, 0.9580000000000001, 192.0, 0.0, 0.0, 0.0, 0.0, 0.0, 0.0, 0.0, 0.0, 0.0, 1.700578811862209E9, 0.0, 2023-11-21 10:00:11.862
76.0, -1660.7793165182254, -1480.95953237528, -3033.0646673518027, 1055.7846493464292, 3190.7785762284493, 3400.683808408238, 213.52621478154836, -4481.994149922628, 0.01, 0.134, 0.9580000000000001, 192.0, 0.0, 0.0, 0.0, 0.0, 0.0, 0.0, 0.0, 0.0, 0.0, 1.700578811866233E9, 0.0, 2023-11-21 10:00:11.866
77.0, -1658.1194589280437, -1491.6883697138273, -3057.562179274819, 1050.822562077351, 3189.258657605488, 3395.6993693947043, 215.80609271598968, -4478.820202209974, 0.01, 0.134, 0.9580000000000001, 192.0, 0.0, 0.0, 0.0, 0.0, 0.0, 0.0, 0.0, 0.0, 0.0, 1.700578811870214E9, 0.0, 2023-11-21 10:00:11.870
78.0, -1657.627720550027, -1492.4706807697632, -3058.36684207521, 1050.822562077351, 3194.243096619022, 3400.5720496859612, 220.74582824061255, -4476.227399853158, 0.01, 0.134, 0.9580000000000001, 192.0, 0.0, 0.0, 0.0, 0.0, 0.0, 0.0, 0.0, 0.0, 0.0, 1.700578811875225E9, 0.0, 2023-11-21 10:00:11.875
79.0, -1656.2642641382533, -1492.0683493695676, -3064.7817927338833, 1048.5203323984542, 3191.493832051019, 3403.611886931883, 224.3891625868276, -4473.701652729708, 0.01, 0.134, 0.9580000000000001, 192.0, 0.0, 0.0, 0.0, 0.0, 0.0, 0.0, 0.0, 0.0, 0.0, 1.700578811878248E9, 0.0, 2023-11-21 10:00:11.878
80.0, -1651.5480460581834, -1485.7428056887159, -3050.051993137836, 1060.3444052153118, 3195.7630152419824, 3404.6847706657377, 225.55145329850356, -4473.768707963074, 0.01, 0.134, 0.9580000000000001, 192.0, 0.0, 0.0, 0.0, 0.0, 0.0, 0.0, 0.0, 0.0, 0.0, 1.700578811882276E9, 0.0, 2023-11-21 10:00:11.882
81.0, -1652.598578047583, -1477.9867503627243, -3043.5699872457967, 1061.4396406936219, 3194.1536896412003, 3402.360189242386, 223.27157536406224, -4475.176867863759, 0.01, 0.134, 0.9580000000000001, 192.0, 0.0, 0.0, 0.0, 0.0, 0.0, 0.0, 0.0, 0.0, 0.0, 1.700578811886252E9, 0.0, 2023-11-21 10:00:11.886
82.0, -1646.340089600097, -1477.3609015179757, -3047.347432058744, 1061.2831784824346, 3194.9583524415916, 3403.321314253964, 223.71861025316838, -4472.740527718131, 0.01, 0.134, 0.9580000000000001, 192.0, 0.0, 0.0, 0.0, 0.0, 0.0, 0.0, 0.0, 0.0, 0.0, 1.700578811890259E9, 0.0, 2023-11-21 10:00:11.890
83.0, -1655.3478426155857, -1485.9663231332688, -3054.9693769180035, 1057.7516028584962, 3193.7737099854603, 3406.607020688894, 224.45621782019353, -4478.21670510968, 0.01, 0.134, 0.9580000000000001, 192.0, 0.0, 0.0, 0.0, 0.0, 0.0, 0.0, 0.0, 0.0, 0.0, 1.700578811894302E9, 0.0, 2023-11-21 10:00:11.894
84.0, -1655.1690286599433, -1488.6038289789951, -3058.143324630657, 1054.5105999124767, 3195.4724425640634, 3406.67407592226, 223.71861025316838, -4481.07772839996, 0.01, 0.132, 0.9580000000000001, 192.0, 0.0, 80.0, 4.0, 32.0, 29.0, 240.0, 0.0, 0.0, 0.0, 1.700578811898318E9, 0.0, 2023-11-21 10:00:11.898
85.0, -1653.4926478257953, -1483.8876108989252, -3049.8284756932826, 1057.4833819250325, 3199.5628117993847, 3406.584668944439, 225.99848818760972, -4476.853248697907, 0.01, 0.132, 0.9580000000000001, 192.0, 0.0, 0.0, 0.0, 0.0, 0.0, 0.0, 0.0, 0.0, 0.0, 1.70057881190229E9, 0.0, 2023-11-21 10:00:11.902
86.0, -1651.436287335907, -1477.1597358178778, -3041.2677575669004, 1058.2433412365128, 3199.6745705216613, 3406.67407592226, 224.29975560900638, -4476.897952186818, 0.01, 0.132, 0.9580000000000001, 192.0, 0.0, 0.0, 0.0, 0.0, 0.0, 0.0, 0.0, 0.0, 0.0, 1.700578811905319E9, 0.0, 2023-11-21 10:00:11.905
87.0, -1653.3808891035187, -1473.1364218159226, -3038.0714581097914, 1057.662195880675, 3198.10994840979, 3407.3446282559194, 221.03640091853154, -4477.277931842557, 0.01, 0.132, 0.9580000000000001, 192.0, 0.0, 0.0, 0.0, 0.0, 0.0, 0.0, 0.0, 0.0, 0.0, 1.700578811911322E9, 0.0, 2023-11-21 10:00:11.911
88.0, -1652.1068396695662, -1479.8419451525147, -3036.082152853269, 1059.7185563705632, 3195.3383320973317, 3405.3776747438524, 219.71764799566841, -4478.1496498763145, 0.01, 0.132, 0.9580000000000001, 192.0, 0.0, 0.0, 0.0, 0.0, 0.0, 0.0, 0.0, 0.0, 0.0, 1.700578811914361E9, 0.0, 2023-11-21 10:00:11.914
89.0, -1637.0864673955998, -1470.1636398033668, -3031.6118039622074, 1068.5474954304095, 3205.262506635488, 3413.9160411257794, 227.40664808829405, -4468.851324182907, 0.01, 0.132, 0.9580000000000001, 192.0, 0.0, 0.0, 0.0, 0.0, 0.0, 0.0, 0.0, 0.0, 0.0, 1.700578811918374E9, 0.0, 2023-11-21 10:00:11.918
90.0, -1648.1058774120663, -1484.4687562547633, -3052.533036772375, 1063.853629094795, 3206.7377217695384, 3415.1453870708215, 224.29975560900638, -4474.461612041189, 0.01, 0.132, 0.9580000000000001, 192.0, 0.0, 0.0, 0.0, 0.0, 0.0, 0.0, 0.0, 0.0, 0.0, 1.700578811922335E9, 0.0, 2023-11-21 10:00:11.922
91.0, -1642.7191069983373, -1488.0673871120678, -3058.5456560308526, 1058.8691900812614, 3199.138128654734, 3407.255221278098, 222.01987767456507, -4473.500487029611, 0.01, 0.132, 0.9580000000000001, 192.0, 0.0, 0.0, 0.0, 0.0, 0.0, 0.0, 0.0, 0.0, 0.0, 1.700578811926345E9, 0.0, 2023-11-21 10:00:11.926
92.0, -1645.0883919105997, -1488.6485324679056, -3057.696289741551, 1056.4775534245437, 3195.0030559305023, 3404.3718462433635, 222.53396779703712, -4474.841591696929, 0.01, 0.132, 0.9580000000000001, 192.0, 0.0, 0.0, 0.0, 0.0, 0.0, 0.0, 0.0, 0.0, 0.0, 1.700578811930337E9, 0.0, 2023-11-21 10:00:11.930
93.0, -1650.0281274352226, -1485.4298812663415, -3053.181237361579, 1061.4843441825324, 3200.0545501774013, 3409.378637001352, 227.29488936601751, -4472.606417251399, 0.01, 0.132, 0.9580000000000001, 192.0, 0.0, 0.0, 0.0, 0.0, 0.0, 0.0, 0.0, 0.0, 0.0, 1.700578811935393E9, 0.0, 2023-11-21 10:00:11.935
94.0, -1656.3536711160746, -1487.1956690783106, -3055.4834670404753, 1060.2102947485798, 3200.8368612333375, 3407.6575526782935, 224.0315346755427, -4478.373167320868, 0.012, 0.128, 0.9560000000000001, 192.0, 0.0, 96.0, 4.0, 0.0, 29.0, 224.0, 0.0, 0.0, 0.0, 1.70057881193838E9, 0.0, 2023-11-21 10:00:11.938
95.0, -1652.3750606030299, -1479.6184277079617, -3044.8887401686598, 1066.6028936627977, 3204.971933957569, 3410.4962242241177, 222.8021887305008, -4480.138955132837, 0.012, 0.128, 0.9560000000000001, 192.0, 0.0, 0.0, 0.0, 0.0, 0.0, 0.0, 0.0, 0.0, 0.0, 1.700578811942406E9, 0.0, 2023-11-21 10:00:11.942
96.0, -1648.1282291565217, -1477.4950119847074, -3035.501007497431, 1071.7437948875183, 3200.8368612333375, 3409.1104160678883, 220.5223107960595, -4479.021367910072, 0.012, 0.128, 0.9560000000000001, 192.0, 0.0, 0.0, 0.0, 0.0, 0.0, 0.0, 0.0, 0.0, 0.0, 1.700578811946371E9, 0.0, 2023-11-21 10:00:11.946
97.0, -1652.7326885143148, -1474.2540090386879, -3038.540844743353, 1066.491134940521, 3193.460785563086, 3406.7858346445364, 220.34349684041703, -4476.74148997563, 0.012, 0.128, 0.9560000000000001, 192.0, 0.0, 0.0, 0.0, 0.0, 0.0, 0.0, 0.0, 0.0, 0.0, 1.700578811950401E9, 0.0, 2023-11-21 10:00:11.950
98.0, -1651.793915247192, -1473.091718327012, -3038.876120910182, 1072.5708094323647, 3200.3451228553204, 3413.8489858924136, 226.42317133226055, -4477.702614987208, 0.012, 0.128, 0.9560000000000001, 192.0, 0.0, 0.0, 0.0, 0.0, 0.0, 0.0, 0.0, 0.0, 0.0, 1.700578811954423E9, 0.0, 2023-11-21 10:00:11.954
99.0, -1652.017432691745, -1485.5639917330734, -3054.522342028897, 1065.68647214013, 3195.8300704753483, 3409.423340490263, 224.16564514227454, -4480.451879555211, 0.012, 0.128, 0.9560000000000001, 192.0, 0.0, 0.0, 0.0, 0.0, 0.0, 0.0, 0.0, 0.0, 0.0, 1.700578811957411E9, 0.0, 2023-11-21 10:00:11.957
100.0, -1652.889150725502, -1494.5270412596515, -3060.043222909358, 1058.6009691477977, 3191.1809076286445, 3403.1425002983215, 221.215214874174, -4484.408138323801, 0.012, 0.128, 0.9560000000000001, 192.0, 0.0, 0.0, 0.0, 0.0, 0.0, 0.0, 0.0, 0.0, 0.0, 1.700578811961422E9, 0.0, 2023-11-21 10:00:11.961
101.0, -1650.7657350022478, -1495.6222767379616, -3060.8255339652937, 1058.1315825142362, 3191.1809076286445, 3400.8849741083354, 221.10345615189746, -4479.0884231434375, 0.012, 0.128, 0.9560000000000001, 192.0, 0.0, 0.0, 0.0, 0.0, 0.0, 0.0, 0.0, 0.0, 0.0, 1.700578811965449E9, 0.0, 2023-11-21 10:00:11.965
102.0, -1656.241912393798, -1482.7923754206151, -3043.659394223618, 1067.3628529742782, 3195.4053873306975, 3402.9189828537683, 222.04222941902037, -4481.41300456679, 0.012, 0.128, 0.9560000000000001, 192.0, 0.0, 0.0, 0.0, 0.0, 0.0, 0.0, 0.0, 0.0, 0.0, 1.700578811970436E9, 0.0, 2023-11-21 10:00:11.970
103.0, -1661.3604618740633, -1478.4784887407409, -3033.60110921873, 1070.8944285982168, 3193.617247774273, 3400.639104919327, 218.57770902844777, -4487.805603481007, 0.012, 0.128, 0.9560000000000001, 192.0, 0.0, 0.0, 0.0, 0.0, 0.0, 0.0, 0.0, 0.0, 0.0, 1.700578811974447E9, 0.0, 2023-11-21 10:00:11.974
104.0, -1657.3818513610188, -1487.5532969895955, -3046.1627896026125, 1064.6359401507307, 3197.6405617762284, 3404.193032287721, 217.03543866103158, -4488.722025003675, 0.008, 0.13, 0.96, 192.0, 0.0, 64.0, 4.0, 16.0, 30.0, 0.0, 0.0, 0.0, 0.0, 1.700578811978404E9, 0.0, 2023-11-21 10:00:11.978
105.0, -1649.536389057206, -1499.734997717738, -3052.6671472391067, 1060.791440104418, 3197.5064513094967, 3402.583706686939, 212.05099964749812, -4488.230286625658, 0.008, 0.13, 0.96, 192.0, 0.0, 0.0, 0.0, 0.0, 0.0, 0.0, 0.0, 0.0, 0.0, 1.700578811982472E9, 0.0, 2023-11-21 10:00:11.982
106.0, -1642.9426244428903, -1498.9750384062575, -3046.7439349584506, 1068.0110535634822, 3200.6356955332394, 3407.612849189383, 218.13067413934164, -4477.814373709485, 0.008, 0.13, 0.96, 192.0, 0.0, 0.0, 0.0, 0.0, 0.0, 0.0, 0.0, 0.0, 0.0, 1.700578811985481E9, 0.0, 2023-11-21 10:00:11.985
107.0, -1647.8600082230578, -1496.4269395383526, -3039.725487199484, 1069.888600097728, 3199.8533844773037, 3410.831500390947, 222.19869163020752, -4471.377071306357, 0.008, 0.13, 0.96, 192.0, 0.0, 0.0, 0.0, 0.0, 0.0, 0.0, 0.0, 0.0, 0.0, 1.700578811989459E9, 0.0, 2023-11-21 10:00:11.989
108.0, -1648.016470434245, -1484.1781835768443, -3051.616615249707, 1067.3181494853675, 3201.39565484472, 3413.066674836478, 222.73513349713488, -4473.366376562879, 0.008, 0.13, 0.96, 192.0, 0.0, 0.0, 0.0, 0.0, 0.0, 0.0, 0.0, 0.0, 0.0, 1.70057881199347E9, 0.0, 2023-11-21 10:00:11.993
109.0, -1649.4469820793847, -1475.0139683501684, -3036.5068359979196, 1072.5037541989989, 3207.2071084031, 3414.5195382260727, 223.74096199762369, -4476.808545208996, 0.008, 0.13, 0.96, 192.0, 0.0, 0.0, 0.0, 0.0, 0.0, 0.0, 0.0, 0.0, 0.0, 1.700578811997476E9, 0.0, 2023-11-21 10:00:11.997
110.0, -1656.6442437939936, -1480.0654625970678, -3037.758533687417, 1066.5358384294318, 3199.719274010572, 3410.183299801743, 221.03640091853154, -4480.116603388382, 0.008, 0.13, 0.96, 192.0, 0.0, 0.0, 0.0, 0.0, 0.0, 0.0, 0.0, 0.0, 0.0, 1.700578812002515E9, 0.0, 2023-11-21 10:00:12.002
111.0, -1653.0679646811445, -1507.7145704882826, -3068.201609635545, 1051.336652199823, 3190.8009279729044, 3407.9257736117574, 219.89646195131087, -4477.07676614246, 0.008, 0.13, 0.96, 192.0, 0.0, 0.0, 0.0, 0.0, 0.0, 0.0, 0.0, 0.0, 0.0, 1.700578812006549E9, 0.0, 2023-11-21 10:00:12.006
112.0, -1631.9902696597899, -1491.4648522692744, -3047.1239146141907, 1062.043137793915, 3197.9981896875133, 3413.0443230920228, 224.63503177583598, -4469.410117794289, 0.008, 0.13, 0.96, 192.0, 0.0, 0.0, 0.0, 0.0, 0.0, 0.0, 0.0, 0.0, 0.0, 1.700578812010553E9, 0.0, 2023-11-21 10:00:12.010
113.0, -1635.9912319172897, -1476.6456456954058, -3024.0569143363136, 1078.5834286908423, 3211.297477638421, 3422.2308900631538, 233.19574990221858, -4467.2867020710355, 0.008, 0.13, 0.96, 192.0, 0.0, 0.0, 0.0, 0.0, 0.0, 0.0, 0.0, 0.0, 0.0, 1.700578812013543E9, 0.0, 2023-11-21 10:00:12.013
114.0, -1651.0339559357114, -1477.450308495797, -3033.7799231743725, 1068.1004605413034, 3201.39565484472, 3411.6585149357934, 223.07040966396448, -4478.551981276511, 0.008, 0.13, 0.96, 192.0, 0.0, 0.0, 0.0, 0.0, 0.0, 0.0, 0.0, 0.0, 0.0, 1.700578812017518E9, 0.0, 2023-11-21 10:00:12.017
115.0, -1659.1252874285326, -1479.4172620078639, -3027.9237661270818, 1069.598027419809, 3201.909744967192, 3410.317410268475, 222.4669125636712, -4482.955274934206, 0.01, 0.128, 0.96, 192.0, 0.0, 80.0, 4.0, 0.0, 30.0, 0.0, 0.0, 0.0, 0.0, 1.70057881202154E9, 0.0, 2023-11-21 10:00:12.021
116.0, -1658.1865141614098, -1491.6883697138273, -3053.538865272864, 1065.5076581844876, 3201.686227522639, 3414.8324626484473, 227.63016553284712, -4476.540324275533, 0.01, 0.128, 0.96, 192.0, 0.0, 0.0, 0.0, 0.0, 0.0, 0.0, 0.0, 0.0, 0.0, 1.700578812025533E9, 0.0, 2023-11-21 10:00:12.025
117.0, -1645.2225023773317, -1491.733073202738, -3062.010176421425, 1062.9595593165827, 3200.233364133044, 3418.833424905947, 230.08885742293091, -4466.571446248466, 0.01, 0.128, 0.96, 192.0, 0.0, 0.0, 0.0, 0.0, 0.0, 0.0, 0.0, 0.0, 0.0, 1.700578812029562E9, 0.0, 2023-11-21 10:00:12.029
118.0, -1643.0990866540774, -1486.413358022375, -3047.593301247752, 1060.2102947485798, 3194.243096619022, 3414.34072427043, 226.17730214325218, -4469.186600349736, 0.01, 0.128, 0.96, 192.0, 0.0, 0.0, 0.0, 0.0, 0.0, 0.0, 0.0, 0.0, 0.0, 1.700578812034673E9, 0.0, 2023-11-21 10:00:12.034
119.0, -1640.148656385977, -1489.5649539905733, -3053.3600513172214, 1056.1869807466246, 3192.4549570625973, 3413.223137047665, 226.37846784334994, -4470.214780594681, 0.01, 0.128, 0.96, 192.0, 0.0, 0.0, 0.0, 0.0, 0.0, 0.0, 0.0, 0.0, 0.0, 1.700578812038588E9, 0.0, 2023-11-21 10:00:12.038
120.0, -1650.8327902356136, -1493.8117854370817, -3059.7079467425283, 1059.0927075258146, 3196.724140253561, 3414.9218696262683, 227.92073821076613, -4474.573370763465, 0.01, 0.128, 0.96, 192.0, 0.0, 0.0, 0.0, 0.0, 0.0, 0.0, 0.0, 0.0, 0.0, 1.700578812041561E9, 0.0, 2023-11-21 10:00:12.041
121.0, -1646.116572155544, -1483.507631243185, -3047.9285774145815, 1065.9323413291386, 3198.3558175987982, 3413.9160411257794, 227.04902017700914, -4474.0369288965385, 0.01, 0.128, 0.96, 192.0, 0.0, 0.0, 0.0, 0.0, 0.0, 0.0, 0.0, 0.0, 0.0, 1.700578812045603E9, 0.0, 2023-11-21 10:00:12.045
122.0, -1641.1991883753765, -1482.6806166983388, -3045.8498651802383, 1067.921646585661, 3198.2887623654324, 3414.2289655481536, 226.2220056321628, -4471.779402706552, 0.01, 0.128, 0.96, 192.0, 0.0, 0.0, 0.0, 0.0, 0.0, 0.0, 0.0, 0.0, 0.0, 1.700578812049603E9, 0.0, 2023-11-21 10:00:12.049
123.0, -1642.5402930426949, -1485.832212666537, -3046.5874727472633, 1066.8040593628955, 3192.4102535736865, 3410.2056515461986, 222.91394745277734, -4477.300283587013, 0.01, 0.128, 0.96, 192.0, 0.0, 0.0, 0.0, 0.0, 0.0, 0.0, 0.0, 0.0, 0.0, 1.70057881205367E9, 0.0, 2023-11-21 10:00:12.053
124.0, -1644.820170977136, -1476.5785904620398, -3031.209472562012, 1071.9673123320715, 3195.271276863966, 3412.1949568027208, 222.55631954149243, -4478.4402225542335, 0.01, 0.128, 0.96, 192.0, 0.0, 0.0, 0.0, 0.0, 0.0, 0.0, 0.0, 0.0, 0.0, 1.700578812057674E9, 0.0, 2023-11-21 10:00:12.057
125.0, -1643.0096796762562, -1481.67478819785, -3039.4572662660203, 1069.598027419809, 3195.1148146527785, 3413.446654492218, 226.17730214325218, -4466.437335781734, 0.012, 0.136, 0.9560000000000001, 192.0, 0.0, 96.0, 4.0, 64.0, 29.0, 224.0, 0.0, 0.0, 0.0, 1.700578812062672E9, 0.0, 2023-11-21 10:00:12.062
126.0, -1646.049516922178, -1495.801090693604, -3056.757516474428, 1063.6301116502418, 3188.6104570162843, 3409.870375379369, 223.38333408633878, -4465.185638092236, 0.012, 0.136, 0.9560000000000001, 192.0, 0.0, 0.0, 0.0, 0.0, 0.0, 0.0, 0.0, 0.0, 0.0, 1.700578812065684E9, 0.0, 2023-11-21 10:00:12.065
127.0, -1642.0262029202227, -1481.160698075378, -3043.055897123325, 1069.8662483532726, 3193.594896029818, 3412.418474247274, 225.59615678741417, -4466.794963693019, 0.012, 0.136, 0.9560000000000001, 192.0, 0.0, 0.0, 0.0, 0.0, 0.0, 0.0, 0.0, 0.0, 0.0, 1.700578812069725E9, 0.0, 2023-11-21 10:00:12.069
128.0, -1648.7093745123595, -1485.9663231332688, -3045.782809946872, 1067.4746116965548, 3192.0302739179465, 3409.468043979173, 223.47274106416, -4474.9757021636615, 0.012, 0.136, 0.9560000000000001, 192.0, 0.0, 0.0, 0.0, 0.0, 0.0, 0.0, 0.0, 0.0, 0.0, 1.700578812073708E9, 0.0, 2023-11-21 10:00:12.073
129.0, -1652.4197640919406, -1489.967285390769, -3042.854731423227, 1069.598027419809, 3190.1750791281556, 3406.964648600179, 218.7118194951796, -4478.104946387404, 0.012, 0.136, 0.9560000000000001, 192.0, 0.0, 0.0, 0.0, 0.0, 0.0, 0.0, 0.0, 0.0, 0.0, 1.700578812077667E9, 0.0, 2023-11-21 10:00:12.077
130.0, -1647.0553454226667, -1488.8720499124588, -3034.8975103971375, 1075.588294933831, 3194.7348349970384, 3410.429168990752, 219.0247439175539, -4471.354719561901, 0.012, 0.136, 0.9560000000000001, 192.0, 0.0, 0.0, 0.0, 0.0, 0.0, 0.0, 0.0, 0.0, 0.0, 1.70057881208169E9, 0.0, 2023-11-21 10:00:12.081
131.0, -1651.9280257139237, -1490.4590237687855, -3035.657469708618, 1070.7379663870295, 3193.684303007639, 3406.1376340553325, 214.5543950264925, -4474.483963785644, 0.012, 0.136, 0.9560000000000001, 192.0, 0.0, 0.0, 0.0, 0.0, 0.0, 0.0, 0.0, 0.0, 0.0, 1.70057881208567E9, 0.0, 2023-11-21 10:00:12.085
132.0, -1657.4265548499293, -1490.8390034245258, -3046.654527980629, 1064.524181428454, 3193.1478611407115, 3402.2707822645643, 213.77208397055674, -4477.523801031566, 0.012, 0.136, 0.9560000000000001, 192.0, 0.0, 0.0, 0.0, 0.0, 0.0, 0.0, 0.0, 0.0, 0.0, 1.700578812090685E9, 0.0, 2023-11-21 10:00:12.090
133.0, -1644.797819232681, -1480.668959697361, -3037.691478454051, 1066.7146523850743, 3194.7348349970384, 3404.48360496564, 219.98586892913212, -4467.487867771133, 0.012, 0.136, 0.9560000000000001, 192.0, 0.0, 0.0, 0.0, 0.0, 0.0, 0.0, 0.0, 0.0, 0.0, 1.700578812093709E9, 0.0, 2023-11-21 10:00:12.093
134.0, -1645.4460198218846, -1485.4522330107968, -3038.339679043255, 1067.3852047187336, 3198.8252042323597, 3410.093892823922, 227.33959285492813, -4464.336271802935, 0.012, 0.136, 0.9560000000000001, 192.0, 0.0, 0.0, 0.0, 0.0, 0.0, 0.0, 0.0, 0.0, 0.0, 1.700578812096711E9, 0.0, 2023-11-21 10:00:12.096
135.0, -1645.5130750552507, -1489.833174924037, -3034.048144107836, 1068.7486611305071, 3198.556983298896, 3406.584668944439, 225.81967423196724, -4465.565617747977, 0.006, 0.132, 0.96, 192.0, 0.0, 48.0, 4.0, 32.0, 30.0, 0.0, 0.0, 0.0, 0.0, 1.700578812101753E9, 0.0, 2023-11-21 10:00:12.101
136.0, -1637.4887987957954, -1479.9760556192466, -3024.8392253922493, 1075.8788676117501, 3200.3451228553204, 3408.2610497785868, 224.25505212009577, -4463.196332835714, 0.006, 0.132, 0.96, 192.0, 0.0, 0.0, 0.0, 0.0, 0.0, 0.0, 0.0, 0.0, 0.0, 1.700578812105736E9, 0.0, 2023-11-21 10:00:12.105
137.0, -1629.6209847475272, -1469.2695700251545, -3014.9374025985485, 1081.332693258845, 3205.7095415245944, 3416.710009182693, 228.88186322234432, -4454.479152498145, 0.006, 0.132, 0.96, 192.0, 0.0, 0.0, 0.0, 0.0, 0.0, 0.0, 0.0, 0.0, 0.0, 1.700578812109774E9, 0.0, 2023-11-21 10:00:12.109
138.0, -1640.729801741815, -1485.2734190551544, -3039.07728661028, 1066.4464314516106, 3201.753282756005, 3415.190090559732, 226.82550273245607, -4458.88244615584, 0.006, 0.132, 0.96, 192.0, 0.0, 0.0, 0.0, 0.0, 0.0, 0.0, 0.0, 0.0, 0.0, 1.700578812113742E9, 0.0, 2023-11-21 10:00:12.113
139.0, -1644.9095779549573, -1489.475547012752, -3042.340641300755, 1067.0052250629933, 3195.0477594194126, 3406.9199451112686, 219.80705497348964, -4466.303225315002, 0.006, 0.132, 0.96, 192.0, 0.0, 0.0, 0.0, 0.0, 0.0, 0.0, 0.0, 0.0, 0.0, 1.700578812118755E9, 0.0, 2023-11-21 10:00:12.118
