%OpenBCI Raw EXG Data
%Number of channels = 8
%Sample Rate = 250 Hz
%Board = OpenBCI_GUI$BoardCytonSerial
Sample Index, EXG Channel 0, EXG Channel 1, EXG Channel 2, EXG Channel 3, EXG Channel 4, EXG Channel 5, EXG Channel 6, EXG Channel 7, Accel Channel 0, Accel Channel 1, Accel Channel 2, Other, Other, Other, Other, Other, Other, Other, Analog Channel 0, Analog Channel 1, Analog Channel 2, Timestamp, Other, Timestamp (Formatted)
148.0, -1745.0230413702777, -1563.6609868599162, -3115.2743834584217, 1102.79036793594, 3100.5892873512853, 3326.721886005627, 237.0402499485314, -4592.76939544313, 0.0, 0.0, 0.0, 192.0, 0.0, 0.0, 0.0, 0.0, 0.0, 0.0, 0.0, 0.0, 0.0, 1.70057887073851E9, 0.0, 2023-11-21 10:01:10.738
149.0, -1730.1814830519538, -1545.824294784581, -3121.175243994623, 1108.7135802165963, 3109.9546682780588, 3335.550825065473, 244.14810468531905, -4585.393319772878, 0.0, 0.0, 0.0, 192.0, 0.0, 0.0, 0.0, 0.0, 0.0, 0.0, 0.0, 0.0, 0.0, 1.700578870738525E9, 0.0, 2023-11-21 10:01:10.738
150.0, -1741.335003535152, -1568.31014970662, -3138.207273269567, 1103.818548180884, 3108.4794531440084, 3333.248595386576, 242.18115117325203, -4588.679026207808, 0.0, 0.0, 0.0, 192.0, 0.0, 0.0, 0.0, 0.0, 0.0, 0.0, 0.0, 0.0, 0.0, 1.700578870738537E9, 0.0, 2023-11-21 10:01:10.738
0.0, 0.0, 0.0, 0.0, 0.0, 0.0, 0.0, 0.0, 0.0, 0.14200000000000002, 0.122, 0.9580000000000001, 192.0, 4.0, 112.0, 3.0, 208.0, 29.0, 240.0, 0.0, 0.0, 0.0, 1.700578870824325E9, 0.0, 2023-11-21 10:01:10.824
1.0, -1575.0380247876674, -1491.286038313632, -3220.9534312431138, 1067.2063907630911, 3389.709101880682, 3424.3319540419525, 315.02548635309773, -4340.5746627539, 0.14200000000000002, 0.122, 0.9580000000000001, 192.0, 0.0, 0.0, 0.0, 0.0, 0.0, 0.0, 0.0, 0.0, 0.0, 1.700578870833356E9, 0.0, 2023-11-21 10:01:10.833
2.0, -1563.3033589486313, -1483.7535004321935, -3222.8309777773593, 1071.5202774429654, 3403.030741576045, 3431.3951052898296, 320.8145881670223, -4336.439590029668, 0.14200000000000002, 0.122, 0.9580000000000001, 192.0, 0.0, 0.0, 0.0, 0.0, 0.0, 0.0, 0.0, 0.0, 0.0, 1.700578870837354E9, 0.0, 2023-11-21 10:01:10.837
3.0, -1560.1964664693435, -1484.6922736993163, -3223.0321434774573, 1073.68839665513, 3403.7907008875254, 3428.5117302550952, 318.758227677134, -4335.500816762545, 0.14200000000000002, 0.122, 0.9580000000000001, 192.0, 0.0, 0.0, 0.0, 0.0, 0.0, 0.0, 0.0, 0.0, 0.0, 1.700578870841363E9, 0.0, 2023-11-21 10:01:10.841
4.0, -1558.6318443574721, -1478.2773230406433, -3212.750341028016, 1077.398786234711, 3405.6235439328607, 3432.266823323587, 319.49583524415914, -4333.600918483844, 0.14200000000000002, 0.122, 0.9580000000000001, 192.0, 0.0, 0.0, 0.0, 0.0, 0.0, 0.0, 0.0, 0.0, 0.0, 1.70057887084637E9, 0.0, 2023-11-21 10:01:10.846
5.0, -1563.6386351154608, -1476.310369528576, -3208.0788264368566, 1080.662140925186, 3407.5904974449277, 3435.9995646476227, 320.5910707224692, -4330.337563793369, 0.14200000000000002, 0.122, 0.9580000000000001, 192.0, 0.0, 0.0, 0.0, 0.0, 0.0, 0.0, 0.0, 0.0, 0.0, 1.70057887084937E9, 0.0, 2023-11-21 10:01:10.849
6.0, -1562.0740130035895, -1475.6845206838275, -3207.2071084031, 1079.656312424697, 3408.2386980341316, 3437.3630210593965, 322.69213470126806, -4330.471674260101, 0.14200000000000002, 0.122, 0.9580000000000001, 192.0, 0.0, 0.0, 0.0, 0.0, 0.0, 0.0, 0.0, 0.0, 0.0, 1.70057887085242E9, 0.0, 2023-11-21 10:01:10.852
7.0, -1568.444260173352, -1475.48335498373, -3207.274163636466, 1078.2928560129233, 3403.8577561208913, 3433.96555590219, 320.8145881670223, -4335.232595829081, 0.14200000000000002, 0.122, 0.9580000000000001, 192.0, 0.0, 0.0, 0.0, 0.0, 0.0, 0.0, 0.0, 0.0, 0.0, 1.7005788708574E9, 0.0, 2023-11-21 10:01:10.857
8.0, -1569.7183096073045, -1475.6621689393723, -3203.384960101242, 1082.0703008258702, 3405.4223782327626, 3436.3124890699974, 320.5910707224692, -4337.043087129961, 0.162, 0.14200000000000002, 0.9500000000000001, 192.0, 5.0, 16.0, 4.0, 112.0, 29.0, 176.0, 0.0, 0.0, 0.0, 1.700578870861416E9, 0.0, 2023-11-21 10:01:10.861
9.0, -1563.2586554597206, -1475.1704305613555, -3201.082730422346, 1082.4502804816104, 3405.0871020659333, 3436.5583582590057, 319.22761431069546, -4336.618403985311, 0.162, 0.14200000000000002, 0.9500000000000001, 192.0, 0.0, 0.0, 0.0, 0.0, 0.0, 0.0, 0.0, 0.0, 0.0, 1.700578870865357E9, 0.0, 2023-11-21 10:01:10.865
10.0, -1548.6182628414945, -1469.8730671254477, -3199.9651431995803, 1082.8302601373507, 3407.3669800003745, 3432.9820791461566, 319.80875966653343, -4331.924537649696, 0.162, 0.14200000000000002, 0.9500000000000001, 192.0, 0.0, 0.0, 0.0, 0.0, 0.0, 0.0, 0.0, 0.0, 0.0, 1.700578870869416E9, 0.0, 2023-11-21 10:01:10.869
11.0, -1570.567675896606, -1474.4551747387857, -3201.01567518898, 1083.076129326359, 3406.830538133447, 3431.864491923391, 323.04976261255297, -4329.979935882084, 0.162, 0.14200000000000002, 0.9500000000000001, 192.0, 0.0, 0.0, 0.0, 0.0, 0.0, 0.0, 0.0, 0.0, 0.0, 1.700578870874437E9, 0.0, 2023-11-21 10:01:10.874
12.0, -1572.8475538310474, -1472.9129043713695, -3200.4792333220526, 1082.919667115172, 3408.216346289676, 3432.959727401701, 323.02741086809766, -4333.690325461665, 0.162, 0.14200000000000002, 0.9500000000000001, 192.0, 0.0, 0.0, 0.0, 0.0, 0.0, 0.0, 0.0, 0.0, 0.0, 1.700578870877427E9, 0.0, 2023-11-21 10:01:10.877
13.0, -1564.6221118714943, -1471.3929857484086, -3200.367474599776, 1082.2491147815126, 3410.6079829463943, 3434.993736147134, 325.08377135798594, -4328.549424236944, 0.162, 0.14200000000000002, 0.9500000000000001, 192.0, 0.0, 0.0, 0.0, 0.0, 0.0, 0.0, 0.0, 0.0, 0.0, 1.700578870880444E9, 0.0, 2023-11-21 10:01:10.880
14.0, -1560.9787775252794, -1464.732165900727, -3191.337369839832, 1086.205373550102, 3416.3747330158635, 3435.3290123139636, 328.14596034836296, -4325.598993968844, 0.162, 0.14200000000000002, 0.9500000000000001, 192.0, 0.0, 0.0, 0.0, 0.0, 0.0, 0.0, 0.0, 0.0, 0.0, 1.700578870885448E9, 0.0, 2023-11-21 10:01:10.885
15.0, -1568.2430944732541, -1462.9216745998472, -3182.150802868701, 1090.273391040968, 3418.8557766504023, 3431.7750849455697, 326.76015219213394, -4330.248156815548, 0.162, 0.14200000000000002, 0.9500000000000001, 192.0, 0.0, 0.0, 0.0, 0.0, 0.0, 0.0, 0.0, 0.0, 0.0, 1.700578870889455E9, 0.0, 2023-11-21 10:01:10.889
16.0, -1561.761088581215, -1475.5727619615511, -3199.361646099287, 1089.8487078963171, 3424.130788341855, 3438.190035604243, 331.7222394612121, -4325.1743108241935, 0.162, 0.14200000000000002, 0.9500000000000001, 192.0, 0.0, 0.0, 0.0, 0.0, 0.0, 0.0, 0.0, 0.0, 0.0, 1.700578870893463E9, 0.0, 2023-11-21 10:01:10.893
17.0, -1559.0788792465783, -1480.2442765527103, -3207.497681081019, 1083.590219448831, 3417.7605411720924, 3437.474779781673, 328.436533026282, -4334.249119073048, 0.162, 0.14200000000000002, 0.9500000000000001, 192.0, 0.0, 0.0, 0.0, 0.0, 0.0, 0.0, 0.0, 0.0, 0.0, 1.700578870897472E9, 0.0, 2023-11-21 10:01:10.897
18.0, -1568.5783706400837, -1490.0790441130453, -3216.371323629776, 1069.1956960196133, 3401.5555264419945, 3428.6234889773714, 322.7368381901787, -4331.075171360394, 0.17, 0.152, 0.9440000000000001, 192.0, 5.0, 80.0, 4.0, 192.0, 29.0, 128.0, 0.0, 0.0, 0.0, 1.700578870901486E9, 0.0, 2023-11-21 10:01:10.901
19.0, -1547.0983442185336, -1478.9478753743024, -3203.2508496345104, 1076.2141437785797, 3403.7012939097044, 3427.6623639657932, 322.98270737918705, -4329.354087037335, 0.17, 0.152, 0.9440000000000001, 192.0, 0.0, 0.0, 0.0, 0.0, 0.0, 0.0, 0.0, 0.0, 0.0, 1.700578870905487E9, 0.0, 2023-11-21 10:01:10.905
20.0, -1559.0788792465783, -1475.5280584726404, -3193.7737099854603, 1085.6018764498087, 3415.4583114931957, 3436.893634425835, 330.4481900272596, -4325.755456180031, 0.17, 0.152, 0.9440000000000001, 192.0, 0.0, 0.0, 0.0, 0.0, 0.0, 0.0, 0.0, 0.0, 0.0, 1.700578870908499E9, 0.0, 2023-11-21 10:01:10.908
21.0, -1580.6483126459495, -1485.1393085884224, -3194.9807041860468, 1080.170402547169, 3411.837328891436, 3433.451465779718, 322.178044578796, -4340.999345898551, 0.17, 0.152, 0.9440000000000001, 192.0, 0.0, 0.0, 0.0, 0.0, 0.0, 0.0, 0.0, 0.0, 0.0, 1.700578870913446E9, 0.0, 2023-11-21 10:01:10.913
22.0, -1585.543344681662, -1487.374483033953, -3193.0584541628905, 1073.8448588663173, 3395.5876106724277, 3424.8236924199696, 316.6571636983352, -4335.992555140562, 0.17, 0.152, 0.9440000000000001, 192.0, 0.0, 0.0, 0.0, 0.0, 0.0, 0.0, 0.0, 0.0, 0.0, 1.700578870917474E9, 0.0, 2023-11-21 10:01:10.917
23.0, -1570.634731129972, -1466.3861949904199, -3173.657139975684, 1085.5348212164429, 3395.6993693947043, 3431.0151256340896, 325.77667543610045, -4326.135435835771, 0.17, 0.152, 0.9440000000000001, 192.0, 0.0, 0.0, 0.0, 0.0, 0.0, 0.0, 0.0, 0.0, 0.0, 1.700578870921523E9, 0.0, 2023-11-21 10:01:10.921
24.0, -1566.3208444500976, -1471.9517793597913, -3186.2635238484772, 1091.5027369860097, 3403.969514843168, 3439.128808871366, 334.5162075181255, -4319.206395054626, 0.17, 0.152, 0.9440000000000001, 192.0, 0.0, 0.0, 0.0, 0.0, 0.0, 0.0, 0.0, 0.0, 0.0, 1.700578870925528E9, 0.0, 2023-11-21 10:01:10.925
25.0, -1579.7989463566478, -1502.998352408213, -3225.78140804546, 1075.7000536561077, 3394.425319960752, 3430.7469047006257, 326.49193125867026, -4335.47846501809, 0.17, 0.152, 0.9440000000000001, 192.0, 0.0, 0.0, 0.0, 0.0, 0.0, 0.0, 0.0, 0.0, 0.0, 1.700578870929613E9, 0.0, 2023-11-21 10:01:10.929
26.0, -1564.5997601270392, -1496.8739744274587, -3216.326620140865, 1069.106289041792, 3387.00454080159, 3425.2036720757096, 325.9778411361982, -4331.365744038313, 0.17, 0.152, 0.9440000000000001, 192.0, 0.0, 0.0, 0.0, 0.0, 0.0, 0.0, 0.0, 0.0, 0.0, 1.700578870933644E9, 0.0, 2023-11-21 10:01:10.933
27.0, -1558.1177542350001, -1476.936218373325, -3195.3830355862424, 1082.137356059236, 3394.894706594313, 3431.864491923391, 329.7105824602345, -4328.0576858589275, 0.17, 0.152, 0.9440000000000001, 192.0, 0.0, 0.0, 0.0, 0.0, 0.0, 0.0, 0.0, 0.0, 0.0, 1.700578870936611E9, 0.0, 2023-11-21 10:01:10.936
28.0, -1574.121603265, -1489.319084801565, -3212.4150648611862, 1083.2772950264568, 3396.794604873014, 3432.3338785569526, 326.51428300312557, -4342.675726732698, 0.17400000000000002, 0.15, 0.9480000000000001, 192.0, 5.0, 112.0, 4.0, 176.0, 29.0, 160.0, 0.0, 0.0, 0.0, 1.700578870940624E9, 0.0, 2023-11-21 10:01:10.940
29.0, -1577.5190684222066, -1492.738901703227, -3206.223631647066, 1081.6679694256748, 3395.2076310166876, 3432.289175068042, 331.0740388720082, -4337.490122019068, 0.17400000000000002, 0.15, 0.9480000000000001, 192.0, 0.0, 0.0, 0.0, 0.0, 0.0, 0.0, 0.0, 0.0, 0.0, 1.700578870945625E9, 0.0, 2023-11-21 10:01:10.945
30.0, -1569.7183096073045, -1478.3667300184645, -3192.656122762695, 1086.7641671614847, 3396.2805147505424, 3435.351364058419, 334.4491522847596, -4336.685459218676, 0.17400000000000002, 0.15, 0.9480000000000001, 192.0, 0.0, 0.0, 0.0, 0.0, 0.0, 0.0, 0.0, 0.0, 0.0, 1.70057887094965E9, 0.0, 2023-11-21 10:01:10.949
31.0, -1568.2877979621646, -1479.8866486414254, -3190.8903349507254, 1083.3219985153673, 3394.470023449662, 3434.6808117247597, 334.06917262901936, -4336.707810963132, 0.17400000000000002, 0.15, 0.9480000000000001, 192.0, 0.0, 0.0, 0.0, 0.0, 0.0, 0.0, 0.0, 0.0, 0.0, 1.70057887095361E9, 0.0, 2023-11-21 10:01:10.953
32.0, -1571.9981875417457, -1483.507631243185, -3204.971933957569, 1080.2598095249903, 3396.8616601063804, 3436.446599536729, 335.05264938505286, -4339.814703442419, 0.17400000000000002, 0.15, 0.9480000000000001, 192.0, 0.0, 0.0, 0.0, 0.0, 0.0, 0.0, 0.0, 0.0, 0.0, 1.700578870956666E9, 0.0, 2023-11-21 10:01:10.956
33.0, -1563.437469415363, -1484.446404510308, -3219.7017335536166, 1077.4434897236217, 3397.5545641844947, 3438.2123873486985, 336.2372918411841, -4339.188854597671, 0.17400000000000002, 0.15, 0.9480000000000001, 192.0, 0.0, 0.0, 0.0, 0.0, 0.0, 0.0, 0.0, 0.0, 0.0, 1.700578870961624E9, 0.0, 2023-11-21 10:01:10.961
34.0, -1561.9399025368575, -1470.3871572479197, -3187.8057942158935, 1089.6698939406747, 3406.607020688894, 3443.3979920623296, 335.07500112950817, -4342.80983719943, 0.17400000000000002, 0.15, 0.9480000000000001, 192.0, 0.0, 0.0, 0.0, 0.0, 0.0, 0.0, 0.0, 0.0, 0.0, 1.700578870965638E9, 0.0, 2023-11-21 10:01:10.965
35.0, -1571.4170421859078, -1461.0441280656014, -3166.549285238896, 1090.8992398857165, 3399.38740722983, 3439.061753638, 334.02446914010875, -4335.701982462643, 0.17400000000000002, 0.15, 0.9480000000000001, 192.0, 0.0, 0.0, 0.0, 0.0, 0.0, 0.0, 0.0, 0.0, 0.0, 1.70057887096863E9, 0.0, 2023-11-21 10:01:10.968
36.0, -1570.3888619409636, -1481.5630294755733, -3201.462710078086, 1073.8895623552278, 3390.67022689226, 3431.417457034285, 330.11291386043, -4337.959508652629, 0.17400000000000002, 0.15, 0.9480000000000001, 192.0, 0.0, 0.0, 0.0, 0.0, 0.0, 0.0, 0.0, 0.0, 0.0, 1.700578870973657E9, 0.0, 2023-11-21 10:01:10.973
37.0, -1564.219780471299, -1486.860392911481, -3217.623021319273, 1069.6650826531747, 3395.028817061045, 3436.8489309369247, 332.0128121391311, -4336.596052240855, 0.17400000000000002, 0.15, 0.9480000000000001, 192.0, 0.0, 0.0, 0.0, 0.0, 0.0, 0.0, 0.0, 0.0, 0.0, 1.700578870977646E9, 0.0, 2023-11-21 10:01:10.977
38.0, -1571.7970218416478, -1485.6757504553498, -3210.224593904566, 1071.1850012761356, 3391.4972414371064, 3436.6701169812823, 328.6600504708351, -4337.288956318969, 0.176, 0.148, 0.9460000000000001, 192.0, 5.0, 128.0, 4.0, 160.0, 29.0, 144.0, 0.0, 0.0, 0.0, 1.700578870981697E9, 0.0, 2023-11-21 10:01:10.981
39.0, -1573.6298648869831, -1484.5805149770397, -3209.5763933153626, 1073.4425274661216, 3397.934543840235, 3437.5641867594945, 328.14596034836296, -4339.0323923864835, 0.176, 0.148, 0.9460000000000001, 192.0, 0.0, 0.0, 0.0, 0.0, 0.0, 0.0, 0.0, 0.0, 0.0, 1.700578870984664E9, 0.0, 2023-11-21 10:01:10.984
40.0, -1559.3023966911312, -1479.0149306076682, -3200.523936810963, 1079.0304635799484, 3398.068654306967, 3432.803265190514, 324.86025391343287, -4349.783581469486, 0.176, 0.148, 0.9460000000000001, 192.0, 0.0, 0.0, 0.0, 0.0, 0.0, 0.0, 0.0, 0.0, 0.0, 1.700578870988656E9, 0.0, 2023-11-21 10:01:10.988
41.0, -1565.0020915272346, -1474.030491594135, -3189.2139541165775, 1084.238420038035, 3400.393235730319, 3433.4961692686284, 330.87287317191044, -4339.881758675785, 0.176, 0.148, 0.9460000000000001, 192.0, 0.0, 0.0, 0.0, 0.0, 0.0, 0.0, 0.0, 0.0, 0.0, 1.700578870992694E9, 0.0, 2023-11-21 10:01:10.992
42.0, -1569.2042194848323, -1480.8254219085482, -3204.4131403461865, 1066.3570244737894, 3389.1056047803886, 3434.256128580109, 334.73972496267857, -4339.345316808858, 0.176, 0.148, 0.9460000000000001, 192.0, 0.0, 0.0, 0.0, 0.0, 0.0, 0.0, 0.0, 0.0, 0.0, 1.700578870996676E9, 0.0, 2023-11-21 10:01:10.996
43.0, -1569.5171439072067, -1475.930389872836, -3197.39469258722, 1063.8759808392504, 3383.4729651776515, 3428.8917099108353, 330.0011551381535, -4342.183988354682, 0.176, 0.148, 0.9460000000000001, 192.0, 0.0, 0.0, 0.0, 0.0, 0.0, 0.0, 0.0, 0.0, 0.0, 1.700578871000722E9, 0.0, 2023-11-21 10:01:11.000
44.0, -1566.5667136391062, -1468.509610713674, -3179.6697592341616, 1078.1587455461915, 3390.7149303811707, 3434.166721602288, 336.9301959192987, -4339.121799364305, 0.176, 0.148, 0.9460000000000001, 192.0, 0.0, 0.0, 0.0, 0.0, 0.0, 0.0, 0.0, 0.0, 0.0, 1.70057887100575E9, 0.0, 2023-11-21 10:01:11.005
45.0, -1569.248922973743, -1478.76906141866, -3200.6356955332394, 1078.1810972906467, 3393.57595367145, 3436.5583582590057, 337.6454517418685, -4344.106238377838, 0.176, 0.148, 0.9460000000000001, 192.0, 0.0, 0.0, 0.0, 0.0, 0.0, 0.0, 0.0, 0.0, 0.0, 1.700578871009692E9, 0.0, 2023-11-21 10:01:11.009
46.0, -1566.7455275947486, -1476.1986108062997, -3194.82424197486, 1083.232591537546, 3400.057959563489, 3441.6322042503602, 337.0419546415752, -4343.927424422196, 0.176, 0.148, 0.9460000000000001, 192.0, 0.0, 0.0, 0.0, 0.0, 0.0, 0.0, 0.0, 0.0, 0.0, 1.700578871012725E9, 0.0, 2023-11-21 10:01:11.012
47.0, -1564.6444636159497, -1489.833174924037, -3205.262506635488, 1076.7729373899624, 3390.1114332808775, 3433.4738175241732, 331.0293353830976, -4338.339488308369, 0.176, 0.148, 0.9460000000000001, 192.0, 0.0, 0.0, 0.0, 0.0, 0.0, 0.0, 0.0, 0.0, 0.0, 1.700578871016727E9, 0.0, 2023-11-21 10:01:11.016
48.0, -1581.5423824241618, -1499.7573494621934, -3217.690076552639, 1070.0227105644597, 3385.059939033978, 3431.0821808674555, 331.25285282765066, -4338.183026097182, 0.17400000000000002, 0.148, 0.9420000000000001, 192.0, 5.0, 112.0, 4.0, 160.0, 29.0, 112.0, 0.0, 0.0, 0.0, 1.700578871020758E9, 0.0, 2023-11-21 10:01:11.020
49.0, -1574.3004172206424, -1483.7758521766486, -3195.5394977974297, 1079.0751670688592, 3392.6371804043274, 3435.1725501027763, 332.5045505171479, -4336.5066452630335, 0.17400000000000002, 0.148, 0.9420000000000001, 192.0, 0.0, 0.0, 0.0, 0.0, 0.0, 0.0, 0.0, 0.0, 0.0, 1.700578871024779E9, 0.0, 2023-11-21 10:01:11.024
50.0, -1566.8796380614804, -1475.5951137060063, -3185.682378492639, 1080.7962513919176, 3388.837383846925, 3429.4281517777627, 328.6600504708351, -4338.2053778416375, 0.17400000000000002, 0.148, 0.9420000000000001, 192.0, 0.0, 0.0, 0.0, 0.0, 0.0, 0.0, 0.0, 0.0, 0.0, 1.700578871029741E9, 0.0, 2023-11-21 10:01:11.029
51.0, -1560.5093908917179, -1480.2666282971654, -3202.915573467681, 1075.4765362115547, 3387.585686157428, 3430.7916081895364, 332.41514353932666, -4334.76320919552, 0.17400000000000002, 0.148, 0.9420000000000001, 192.0, 0.0, 0.0, 0.0, 0.0, 0.0, 0.0, 0.0, 0.0, 0.0, 1.700578871033757E9, 0.0, 2023-11-21 10:01:11.033
52.0, -1564.4880014047626, -1483.4182242653637, -3210.135186926745, 1073.0848995548367, 3390.0443780475116, 3434.3008320690196, 334.40444879584896, -4335.433761529179, 0.17400000000000002, 0.148, 0.9420000000000001, 192.0, 0.0, 0.0, 0.0, 0.0, 0.0, 0.0, 0.0, 0.0, 0.0, 1.700578871037772E9, 0.0, 2023-11-21 10:01:11.037
53.0, -1575.0380247876674, -1491.6660179693722, -3208.8611374927927, 1074.627169922253, 3392.838346104425, 3438.2123873486985, 336.81843719702215, -4341.066401131917, 0.17400000000000002, 0.148, 0.9420000000000001, 192.0, 0.0, 0.0, 0.0, 0.0, 0.0, 0.0, 0.0, 0.0, 0.0, 1.700578871040758E9, 0.0, 2023-11-21 10:01:11.040
54.0, -1575.3509492100418, -1489.2743813126542, -3204.256678134999, 1074.6495216667083, 3384.769366356059, 3430.612794233894, 333.4656755287261, -4347.682517490687, 0.17400000000000002, 0.148, 0.9420000000000001, 192.0, 0.0, 0.0, 0.0, 0.0, 0.0, 0.0, 0.0, 0.0, 0.0, 1.700578871044776E9, 0.0, 2023-11-21 10:01:11.044
55.0, -1573.3616439535194, -1484.9157911438695, -3201.1497856557116, 1077.979931590549, 3387.6974448797046, 3432.1327128568546, 331.7669429501227, -4341.3793255542905, 0.17400000000000002, 0.148, 0.9420000000000001, 192.0, 0.0, 0.0, 0.0, 0.0, 0.0, 0.0, 0.0, 0.0, 0.0, 1.700578871048797E9, 0.0, 2023-11-21 10:01:11.048
56.0, -1559.503562391229, -1478.8361166520258, -3194.0642826633793, 1083.8137368933842, 3391.0725582924556, 3435.8207506919803, 335.34322206297185, -4333.9808981395845, 0.17400000000000002, 0.148, 0.9420000000000001, 192.0, 0.0, 0.0, 0.0, 0.0, 0.0, 0.0, 0.0, 0.0, 0.0, 1.700578871052789E9, 0.0, 2023-11-21 10:01:11.052
57.0, -1575.3956526989523, -1489.2073260792884, -3199.3392943548315, 1081.466803725577, 3387.876258835347, 3431.1045326119106, 331.54342550556964, -4341.759305210031, 0.17400000000000002, 0.148, 0.9420000000000001, 192.0, 0.0, 0.0, 0.0, 0.0, 0.0, 0.0, 0.0, 0.0, 0.0, 1.700578871056802E9, 0.0, 2023-11-21 10:01:11.056
58.0, -1578.2343242447764, -1484.2899422991209, -3192.1420326402226, 1079.5892571913312, 3386.4680989346625, 3429.361096544397, 331.20814933874004, -4343.703906977643, 0.17400000000000002, 0.148, 0.9500000000000001, 192.0, 5.0, 112.0, 4.0, 160.0, 29.0, 176.0, 0.0, 0.0, 0.0, 1.700578871060811E9, 0.0, 2023-11-21 10:01:11.060
59.0, -1581.3188649796089, -1487.5309452451404, -3187.3140558378764, 1080.304513013901, 3388.8597355913803, 3430.769256445081, 331.16344584982943, -4348.487180291078, 0.17400000000000002, 0.148, 0.9500000000000001, 192.0, 0.0, 0.0, 0.0, 0.0, 0.0, 0.0, 0.0, 0.0, 0.0, 1.700578871065827E9, 0.0, 2023-11-21 10:01:11.065
60.0, -1571.7523183527373, -1493.252991825699, -3200.076901921857, 1071.9002570987054, 3386.333988467931, 3432.1774163457653, 330.7387627051786, -4346.274357590003, 0.17400000000000002, 0.148, 0.9500000000000001, 192.0, 0.0, 0.0, 0.0, 0.0, 0.0, 0.0, 0.0, 0.0, 0.0, 1.700578871068884E9, 0.0, 2023-11-21 10:01:11.068
61.0, -1559.6153211135056, -1481.5853812200287, -3199.2722391214656, 1075.6106466782865, 3391.899572837302, 3435.485474525151, 334.62796624040203, -4338.3841917972795, 0.17400000000000002, 0.148, 0.9500000000000001, 192.0, 0.0, 0.0, 0.0, 0.0, 0.0, 0.0, 0.0, 0.0, 0.0, 1.700578871072833E9, 0.0, 2023-11-21 10:01:11.072
62.0, -1563.7056903488267, -1487.1956690783106, -3195.9194774531697, 1075.722405400563, 3392.48071819314, 3432.6915064682375, 328.90591965984345, -4345.38028781179, 0.17400000000000002, 0.148, 0.9500000000000001, 192.0, 0.0, 0.0, 0.0, 0.0, 0.0, 0.0, 0.0, 0.0, 0.0, 1.700578871076874E9, 0.0, 2023-11-21 10:01:11.076
63.0, -1566.3878996834637, -1489.2296778237437, -3184.073052891857, 1083.232591537546, 3396.9510670842014, 3436.53600651455, 331.1187423609188, -4345.693212234165, 0.17400000000000002, 0.148, 0.9500000000000001, 192.0, 0.0, 0.0, 0.0, 0.0, 0.0, 0.0, 0.0, 0.0, 0.0, 1.700578871080815E9, 0.0, 2023-11-21 10:01:11.080
64.0, -1557.6260158569833, -1488.3356080455314, -3193.594896029818, 1072.0790710543479, 3390.223192003154, 3436.088971625444, 336.03612614108636, -4340.1499796092485, 0.17400000000000002, 0.148, 0.9500000000000001, 192.0, 0.0, 0.0, 0.0, 0.0, 0.0, 0.0, 0.0, 0.0, 0.0, 1.700578871084868E9, 0.0, 2023-11-21 10:01:11.084
65.0, -1563.8845043044691, -1491.1519278469, -3201.4403583336307, 1065.7088238845854, 3383.4729651776515, 3431.573919245472, 334.33739356248304, -4338.451247030645, 0.17400000000000002, 0.148, 0.9500000000000001, 192.0, 0.0, 0.0, 0.0, 0.0, 0.0, 0.0, 0.0, 0.0, 0.0, 1.700578871089871E9, 0.0, 2023-11-21 10:01:11.089
66.0, -1569.40538518493, -1497.7009889723051, -3203.9884572015358, 1067.5863704188312, 3383.5847238999277, 3428.668192466282, 330.53759700508084, -4339.591185997866, 0.17400000000000002, 0.148, 0.9500000000000001, 192.0, 0.0, 0.0, 0.0, 0.0, 0.0, 0.0, 0.0, 0.0, 0.0, 1.700578871092888E9, 0.0, 2023-11-21 10:01:11.092
67.0, -1567.796059584148, -1484.7593289326824, -3183.849535447304, 1081.7797281479511, 3396.0793490504443, 3440.2016926052206, 339.50064653165896, -4336.640755729765, 0.17400000000000002, 0.148, 0.9500000000000001, 192.0, 0.0, 0.0, 0.0, 0.0, 0.0, 0.0, 0.0, 0.0, 0.0, 1.700578871095889E9, 0.0, 2023-11-21 10:01:11.095
68.0, -1568.600722384539, -1478.925523629847, -3166.6610439611727, 1085.0207310939707, 3395.967590328168, 3442.0121839061003, 341.0205651546199, -4333.243290572559, 0.17200000000000001, 0.14200000000000002, 0.9440000000000001, 192.0, 5.0, 96.0, 4.0, 112.0, 29.0, 128.0, 0.0, 0.0, 0.0, 1.700578871100903E9, 0.0, 2023-11-21 10:01:11.100
69.0, -1562.9904345262569, -1481.2948085421096, -3182.3519685687984, 1083.7466816600183, 3396.772253128559, 3441.118114127888, 339.8806261873992, -4328.258851559026, 0.17200000000000001, 0.14200000000000002, 0.9440000000000001, 192.0, 0.0, 0.0, 0.0, 0.0, 0.0, 0.0, 0.0, 0.0, 0.0, 1.700578871104908E9, 0.0, 2023-11-21 10:01:11.104
70.0, -1561.895199047947, -1481.0712910975567, -3198.266410620977, 1085.0207310939707, 3396.9287153397463, 3442.638032750849, 338.42776279780423, -4327.655354458732, 0.17200000000000001, 0.14200000000000002, 0.9440000000000001, 192.0, 0.0, 0.0, 0.0, 0.0, 0.0, 0.0, 0.0, 0.0, 0.0, 1.700578871108915E9, 0.0, 2023-11-21 10:01:11.108
71.0, -1564.7562223382263, -1491.1519278469, -3209.9563729711026, 1077.756414145996, 3387.1386512683216, 3436.088971625444, 334.9408906627763, -4333.265642317015, 0.17200000000000001, 0.14200000000000002, 0.9440000000000001, 192.0, 0.0, 0.0, 0.0, 0.0, 0.0, 0.0, 0.0, 0.0, 0.0, 1.700578871112909E9, 0.0, 2023-11-21 10:01:11.112
72.0, -1569.114812507011, -1492.7836051921374, -3207.855308992304, 1070.849725109306, 3382.7577093550813, 3430.8139599339916, 331.54342550556964, -4342.251043588048, 0.17200000000000001, 0.14200000000000002, 0.9440000000000001, 192.0, 0.0, 0.0, 0.0, 0.0, 0.0, 0.0, 0.0, 0.0, 0.0, 1.700578871117965E9, 0.0, 2023-11-21 10:01:11.117
73.0, -1568.6230741289944, -1481.3618637754755, -3191.426776817653, 1074.761280388985, 3384.2105727446765, 3430.3669250448856, 333.8903586733769, -4335.165540595715, 0.17200000000000001, 0.14200000000000002, 0.9440000000000001, 192.0, 0.0, 0.0, 0.0, 0.0, 0.0, 0.0, 0.0, 0.0, 0.0, 1.700578871120937E9, 0.0, 2023-11-21 10:01:11.120
74.0, -1565.7173473498044, -1490.77194819116, -3201.686227522639, 1076.4600129675882, 3388.0103693020787, 3428.377619788363, 330.55994874953615, -4341.535787765478, 0.17200000000000001, 0.14200000000000002, 0.9440000000000001, 192.0, 0.0, 0.0, 0.0, 0.0, 0.0, 0.0, 0.0, 0.0, 0.0, 1.700578871124936E9, 0.0, 2023-11-21 10:01:11.124
75.0, -1559.347100180042, -1490.77194819116, -3202.7591112564937, 1077.5105449569876, 3394.738244383126, 3433.96555590219, 336.6843267302903, -4335.657278973732, 0.17200000000000001, 0.14200000000000002, 0.9440000000000001, 192.0, 0.0, 0.0, 0.0, 0.0, 0.0, 0.0, 0.0, 0.0, 0.0, 1.700578871128943E9, 0.0, 2023-11-21 10:01:11.128
76.0, -1563.6386351154608, -1490.7272447022492, -3205.888355480237, 1068.8604198527837, 3390.223192003154, 3431.4621605231955, 334.8961871738657, -4339.010040642028, 0.17200000000000001, 0.14200000000000002, 0.9440000000000001, 192.0, 0.0, 0.0, 0.0, 0.0, 0.0, 0.0, 0.0, 0.0, 0.0, 1.700578871132957E9, 0.0, 2023-11-21 10:01:11.132
77.0, -1552.8650942880029, -1482.121823086956, -3195.494794308519, 1071.4532222095993, 3390.312598980975, 3430.2328145781535, 334.67266972931264, -4330.069342859905, 0.17200000000000001, 0.14200000000000002, 0.9440000000000001, 192.0, 0.0, 0.0, 0.0, 0.0, 0.0, 0.0, 0.0, 0.0, 0.0, 1.700578871136993E9, 0.0, 2023-11-21 10:01:11.136
78.0, -1549.2888151751538, -1472.8458491380036, -3182.5084307799857, 1079.723367658063, 3394.3135612384754, 3432.892672168335, 331.27520457210596, -4342.340450565869, 0.17200000000000001, 0.148, 0.9460000000000001, 192.0, 5.0, 96.0, 4.0, 160.0, 29.0, 144.0, 0.0, 0.0, 0.0, 1.700578871140986E9, 0.0, 2023-11-21 10:01:11.140
79.0, -1572.7134433643155, -1484.4687562547633, -3192.007922173491, 1071.788498376429, 3395.319389738964, 3435.2619570805978, 334.40444879584896, -4338.406543541735, 0.17200000000000001, 0.148, 0.9460000000000001, 192.0, 0.0, 0.0, 0.0, 0.0, 0.0, 0.0, 0.0, 0.0, 0.0, 1.700578871144978E9, 0.0, 2023-11-21 10:01:11.144
80.0, -1570.8806003189804, -1487.9556283897912, -3194.198393130111, 1069.8215448643618, 3390.893744336813, 3433.384410546352, 333.01864063961995, -4335.947851651651, 0.17200000000000001, 0.148, 0.9460000000000001, 192.0, 0.0, 0.0, 0.0, 0.0, 0.0, 0.0, 0.0, 0.0, 0.0, 1.700578871148985E9, 0.0, 2023-11-21 10:01:11.148
81.0, -1589.1866790278768, -1512.900175201914, -3208.3917508592313, 1062.0878412828256, 3379.6284651313385, 3422.9684976301787, 327.5871667369803, -4339.099447619849, 0.17200000000000001, 0.148, 0.9460000000000001, 192.0, 0.0, 0.0, 0.0, 0.0, 0.0, 0.0, 0.0, 0.0, 0.0, 1.700578871151991E9, 0.0, 2023-11-21 10:01:11.151
82.0, -1573.3616439535194, -1497.3210093165649, -3203.4967188235187, 1069.4192134641664, 3387.7197966241597, 3429.1152273553885, 328.90591965984345, -4338.138322608272, 0.17200000000000001, 0.148, 0.9460000000000001, 192.0, 0.0, 0.0, 0.0, 0.0, 0.0, 0.0, 0.0, 0.0, 0.0, 1.700578871157024E9, 0.0, 2023-11-21 10:01:11.157
83.0, -1567.6172456285055, -1486.994503378213, -3198.48992806553, 1077.5776001903535, 3396.0793490504443, 3439.061753638, 332.16927435031823, -4335.590223740366, 0.17200000000000001, 0.148, 0.9460000000000001, 192.0, 0.0, 0.0, 0.0, 0.0, 0.0, 0.0, 0.0, 0.0, 0.0, 1.700578871161E9, 0.0, 2023-11-21 10:01:11.161
84.0, -1566.0302717721788, -1488.156794089889, -3205.329561868854, 1070.8944285982168, 3392.614828659872, 3438.6147187488937, 334.31504181802774, -4336.707810963132, 0.17200000000000001, 0.148, 0.9460000000000001, 192.0, 0.0, 0.0, 0.0, 0.0, 0.0, 0.0, 0.0, 0.0, 0.0, 1.700578871164999E9, 0.0, 2023-11-21 10:01:11.164
85.0, -1560.1741147248883, -1481.2501050531991, -3196.3218088533654, 1072.7496233880072, 3393.7324158826373, 3437.832407692958, 335.9020156743545, -4334.629098728788, 0.17200000000000001, 0.148, 0.9460000000000001, 192.0, 0.0, 0.0, 0.0, 0.0, 0.0, 0.0, 0.0, 0.0, 0.0, 1.700578871168998E9, 0.0, 2023-11-21 10:01:11.168
86.0, -1570.1876962408658, -1480.154869574889, -3187.112890137779, 1078.9410566021272, 3396.682846150738, 3434.9713844026787, 334.67266972931264, -4334.897319662252, 0.17200000000000001, 0.148, 0.9460000000000001, 192.0, 0.0, 0.0, 0.0, 0.0, 0.0, 0.0, 0.0, 0.0, 0.0, 1.700578871173003E9, 0.0, 2023-11-21 10:01:11.173
87.0, -1560.3529286805308, -1484.7816806771375, -3200.658047277695, 1072.4366989656328, 3396.2134595171765, 3434.546701258028, 335.72320171871206, -4329.219976570604, 0.17200000000000001, 0.148, 0.9460000000000001, 192.0, 0.0, 0.0, 0.0, 0.0, 0.0, 0.0, 0.0, 0.0, 0.0, 1.700578871176993E9, 0.0, 2023-11-21 10:01:11.176
88.0, -1556.150800722933, -1471.1694683038556, -3187.3140558378764, 1078.985760091038, 3401.1755467862545, 3440.3358030719523, 339.74651572066733, -4325.978973624584, 0.17200000000000001, 0.15, 0.9420000000000001, 192.0, 5.0, 96.0, 4.0, 176.0, 29.0, 112.0, 0.0, 0.0, 0.0, 1.700578871179994E9, 0.0, 2023-11-21 10:01:11.179
89.0, -1568.4666119178073, -1482.6806166983388, -3187.1575936266895, 1074.5824664333422, 3390.0667297919667, 3431.0151256340896, 331.3646115499272, -4334.38322953978, 0.17200000000000001, 0.15, 0.9420000000000001, 192.0, 0.0, 0.0, 0.0, 0.0, 0.0, 0.0, 0.0, 0.0, 0.0, 1.700578871185102E9, 0.0, 2023-11-21 10:01:11.185
90.0, -1566.0302717721788, -1490.347265046509, -3200.4792333220526, 1072.0790710543479, 3390.960799570179, 3427.5282534990615, 326.46957951421496, -4339.188854597671, 0.17200000000000001, 0.15, 0.9420000000000001, 192.0, 0.0, 0.0, 0.0, 0.0, 0.0, 0.0, 0.0, 0.0, 0.0, 1.700578871189068E9, 0.0, 2023-11-21 10:01:11.189
91.0, -1573.339292209064, -1489.4978987572074, -3206.8271287473594, 1067.0946320408145, 3390.357302469886, 3431.7303814566594, 327.6542219703462, -4337.735991208076, 0.17200000000000001, 0.15, 0.9420000000000001, 192.0, 0.0, 0.0, 0.0, 0.0, 0.0, 0.0, 0.0, 0.0, 0.0, 1.700578871193077E9, 0.0, 2023-11-21 10:01:11.193
92.0, -1568.1983909843434, -1484.4240527658526, -3197.5064513094967, 1072.7943268769177, 3391.8548693483913, 3432.311526812497, 328.10125685945235, -4335.947851651651, 0.17200000000000001, 0.15, 0.9420000000000001, 192.0, 0.0, 0.0, 0.0, 0.0, 0.0, 0.0, 0.0, 0.0, 0.0, 1.700578871197091E9, 0.0, 2023-11-21 10:01:11.197
93.0, -1569.2265712292876, -1492.5824394920396, -3205.0613409353905, 1065.8429343513174, 3385.685787878727, 3426.053038365011, 326.8719109144105, -4331.701020205142, 0.17200000000000001, 0.15, 0.9420000000000001, 192.0, 0.0, 0.0, 0.0, 0.0, 0.0, 0.0, 0.0, 0.0, 0.0, 1.700578871201111E9, 0.0, 2023-11-21 10:01:11.201
94.0, -1563.4151176709079, -1485.608695221984, -3199.5628117993847, 1070.5815041758424, 3390.603171658894, 3429.651669222316, 327.0060213811423, -4330.561081237922, 0.17200000000000001, 0.15, 0.9420000000000001, 192.0, 0.0, 0.0, 0.0, 0.0, 0.0, 0.0, 0.0, 0.0, 0.0, 1.700578871204093E9, 0.0, 2023-11-21 10:01:11.204
95.0, -1566.5220101501955, -1476.3774247619422, -3179.133317367234, 1079.6339606802417, 3396.5263839395507, 3431.059829123, 325.79902718055575, -4330.0469911154505, 0.17200000000000001, 0.15, 0.9420000000000001, 192.0, 0.0, 0.0, 0.0, 0.0, 0.0, 0.0, 0.0, 0.0, 0.0, 1.70057887121013E9, 0.0, 2023-11-21 10:01:11.210
96.0, -1563.5492281376396, -1468.0402240801125, -3166.0351951164243, 1087.3229607728674, 3399.7226833966597, 3431.1268843563657, 326.3354690474831, -4334.964374895618, 0.17200000000000001, 0.15, 0.9420000000000001, 192.0, 0.0, 0.0, 0.0, 0.0, 0.0, 0.0, 0.0, 0.0, 0.0, 1.70057887121312E9, 0.0, 2023-11-21 10:01:11.213
97.0, -1564.4209461713967, -1490.0119888796794, -3207.6988467811166, 1065.239437251024, 3383.361206455375, 3421.9179656407796, 325.10612310244125, -4339.300613319947, 0.17200000000000001, 0.15, 0.9420000000000001, 192.0, 0.0, 0.0, 0.0, 0.0, 0.0, 0.0, 0.0, 0.0, 0.0, 1.700578871217122E9, 0.0, 2023-11-21 10:01:11.217
98.0, -1559.3247484355866, -1492.7612534476823, -3212.236250905544, 1063.0713180388593, 3382.221267488154, 3419.213404561687, 326.15665509184066, -4338.183026097182, 0.17400000000000002, 0.152, 0.9480000000000001, 192.0, 5.0, 112.0, 4.0, 192.0, 29.0, 160.0, 0.0, 0.0, 0.0, 1.700578871221142E9, 0.0, 2023-11-21 10:01:11.221
99.0, -1563.2586554597206, -1488.4697185122632, -3200.9933234445243, 1073.2190100215687, 3389.865564091869, 3424.063733108489, 328.63769872637977, -4335.880796418285, 0.17400000000000002, 0.152, 0.9480000000000001, 192.0, 0.0, 0.0, 0.0, 0.0, 0.0, 0.0, 0.0, 0.0, 0.0, 1.70057887122514E9, 0.0, 2023-11-21 10:01:11.225
100.0, -1564.5997601270392, -1492.1801080918442, -3205.7989485024154, 1068.2122192635798, 3385.685787878727, 3424.15314008631, 327.14013184787416, -4340.641717987266, 0.17400000000000002, 0.152, 0.9480000000000001, 192.0, 0.0, 0.0, 0.0, 0.0, 0.0, 0.0, 0.0, 0.0, 0.0, 1.700578871228147E9, 0.0, 2023-11-21 10:01:11.228
101.0, -1563.9962630267457, -1489.4308435238415, -3204.033160690446, 1067.7428326300185, 3385.976360556646, 3427.1035703544107, 329.1517888488518, -4341.513436021022, 0.17400000000000002, 0.152, 0.9480000000000001, 192.0, 0.0, 0.0, 0.0, 0.0, 0.0, 0.0, 0.0, 0.0, 0.0, 1.700578871232158E9, 0.0, 2023-11-21 10:01:11.232
102.0, -1573.1604782534216, -1488.7826429346376, -3192.9243436961588, 1071.0508908094039, 3382.3106744659754, 3424.734285442148, 325.2402335691731, -4344.24034884457, 0.17400000000000002, 0.152, 0.9480000000000001, 192.0, 0.0, 0.0, 0.0, 0.0, 0.0, 0.0, 0.0, 0.0, 0.0, 1.700578871236184E9, 0.0, 2023-11-21 10:01:11.236
103.0, -1564.3315391935753, -1477.0256253511461, -3170.751413196494, 1082.5173357149763, 3391.9219245817576, 3429.1822825887543, 327.9671463927205, -4336.059610373928, 0.17400000000000002, 0.152, 0.9480000000000001, 192.0, 0.0, 0.0, 0.0, 0.0, 0.0, 0.0, 0.0, 0.0, 0.0, 1.700578871240172E9, 0.0, 2023-11-21 10:01:11.240
104.0, -1568.5113154067178, -1483.3958725209086, -3154.144067066201, 1083.7466816600183, 3393.6206571603607, 3429.294041311031, 326.6483934698574, -4339.255909831037, 0.17400000000000002, 0.152, 0.9480000000000001, 192.0, 0.0, 0.0, 0.0, 0.0, 0.0, 0.0, 0.0, 0.0, 0.0, 1.700578871245189E9, 0.0, 2023-11-21 10:01:11.245
105.0, -1567.952521795335, -1484.893439399414, -3170.125564351745, 1076.9517513456049, 3389.127956524844, 3426.5671284874834, 326.06724811401943, -4334.651450473243, 0.17400000000000002, 0.152, 0.9480000000000001, 192.0, 0.0, 0.0, 0.0, 0.0, 0.0, 0.0, 0.0, 0.0, 0.0, 1.700578871249192E9, 0.0, 2023-11-21 10:01:11.249
106.0, -1555.6590623449163, -1481.0936428420118, -3205.1283961687564, 1077.0635100678815, 3391.7878141150254, 3429.4952070111285, 331.27520457210596, -4335.679630718188, 0.17400000000000002, 0.152, 0.9480000000000001, 192.0, 0.0, 0.0, 0.0, 0.0, 0.0, 0.0, 0.0, 0.0, 0.0, 1.700578871253205E9, 0.0, 2023-11-21 10:01:11.253
107.0, -1569.6959578628491, -1494.862317426481, -3221.288707409943, 1070.5144489424765, 3388.8820873358354, 3431.1492361008213, 337.42193429731543, -4335.657278973732, 0.17400000000000002, 0.152, 0.9480000000000001, 192.0, 0.0, 0.0, 0.0, 0.0, 0.0, 0.0, 0.0, 0.0, 0.0, 1.700578871256241E9, 0.0, 2023-11-21 10:01:11.256
108.0, -1568.7571845957261, -1504.3841605644418, -3227.2789749239655, 1062.8925040832169, 3377.0356627745227, 3423.9072708973017, 331.90105341685455, -4344.217997100115, 0.176, 0.146, 0.9440000000000001, 192.0, 5.0, 128.0, 4.0, 144.0, 29.0, 128.0, 0.0, 0.0, 0.0, 1.700578871260217E9, 0.0, 2023-11-21 10:01:11.260
109.0, -1558.6765478463826, -1487.7768144341487, -3210.3140008823875, 1076.303550756401, 3388.2115350021763, 3432.7809134460585, 339.9029779318545, -4331.075171360394, 0.176, 0.146, 0.9440000000000001, 192.0, 0.0, 0.0, 0.0, 0.0, 0.0, 0.0, 0.0, 0.0, 0.0, 1.700578871264245E9, 0.0, 2023-11-21 10:01:11.264
110.0, -1574.7027486208378, -1489.9449336463135, -3203.1837944011445, 1079.8798298692502, 3387.4292239462407, 3430.8139599339916, 337.80191395305565, -4337.959508652629, 0.176, 0.146, 0.9440000000000001, 192.0, 0.0, 0.0, 0.0, 0.0, 0.0, 0.0, 0.0, 0.0, 0.0, 1.700578871268289E9, 0.0, 2023-11-21 10:01:11.268
111.0, -1566.924341550391, -1490.3025615575984, -3206.581259558351, 1078.4493182241104, 3387.1833547572323, 3427.2153290766873, 337.46663778622604, -4340.351145309347, 0.176, 0.146, 0.9440000000000001, 192.0, 0.0, 0.0, 0.0, 0.0, 0.0, 0.0, 0.0, 0.0, 0.0, 1.70057887127224E9, 0.0, 2023-11-21 10:01:11.272
112.0, -1546.3383849070533, -1481.67478819785, -3205.888355480237, 1080.528030458454, 3392.8830495933357, 3433.9879076466455, 341.1546756213517, -4329.577604481889, 0.176, 0.146, 0.9440000000000001, 192.0, 0.0, 0.0, 0.0, 0.0, 0.0, 0.0, 0.0, 0.0, 0.0, 1.700578871277272E9, 0.0, 2023-11-21 10:01:11.277
113.0, -1560.3976321694413, -1473.5611049605734, -3196.2771053644547, 1087.5017747285099, 3393.6653606492714, 3439.0170501490893, 338.83009419799976, -4339.0323923864835, 0.176, 0.146, 0.9440000000000001, 192.0, 0.0, 0.0, 0.0, 0.0, 0.0, 0.0, 0.0, 0.0, 0.0, 1.700578871281265E9, 0.0, 2023-11-21 10:01:11.281
114.0, -1573.1604782534216, -1482.1441748314114, -3200.30041936641, 1077.8234693793618, 3383.2941512220086, 3432.579747745961, 339.14301862037405, -4335.254947573537, 0.176, 0.146, 0.9440000000000001, 192.0, 0.0, 0.0, 0.0, 0.0, 0.0, 0.0, 0.0, 0.0, 0.0, 1.700578871284274E9, 0.0, 2023-11-21 10:01:11.284
115.0, -1564.3538909380306, -1484.6252184659504, -3197.2605821204884, 1084.238420038035, 3386.8257268459474, 3431.5292157565614, 338.919501175821, -4336.104313862838, 0.176, 0.146, 0.9440000000000001, 192.0, 0.0, 0.0, 0.0, 0.0, 0.0, 0.0, 0.0, 0.0, 0.0, 1.700578871288277E9, 0.0, 2023-11-21 10:01:11.288
116.0, -1574.5239346651954, -1484.5134597436738, -3192.4102535736865, 1084.5736962048645, 3387.8539070908914, 3433.5632245019942, 341.1099721324411, -4327.588299225366, 0.176, 0.146, 0.9440000000000001, 192.0, 0.0, 0.0, 0.0, 0.0, 0.0, 0.0, 0.0, 0.0, 0.0, 1.700578871292318E9, 0.0, 2023-11-21 10:01:11.292
117.0, -1567.438431672863, -1482.5241544871515, -3190.197430872611, 1081.466803725577, 3387.5409826685172, 3434.0102593911006, 342.1605041218405, -4331.656316716232, 0.176, 0.146, 0.9440000000000001, 192.0, 0.0, 0.0, 0.0, 0.0, 0.0, 0.0, 0.0, 0.0, 0.0, 1.700578871296295E9, 0.0, 2023-11-21 10:01:11.296
118.0, -1564.9126845494134, -1489.6543609683945, -3196.433567575642, 1076.2588472674904, 3386.646912890305, 3435.150198358321, 340.99821341016457, -4335.903148162741, 0.176, 0.146, 0.9440000000000001, 192.0, 0.0, 0.0, 0.0, 0.0, 0.0, 0.0, 0.0, 0.0, 0.0, 1.700578871300314E9, 0.0, 2023-11-21 10:01:11.300
119.0, -1574.7027486208378, -1485.832212666537, -3175.7582039544827, 1086.2724287834678, 3387.4962791796065, 3436.088971625444, 339.16537036482936, -4336.260776074026, 0.17, 0.152, 0.9420000000000001, 192.0, 5.0, 80.0, 4.0, 192.0, 29.0, 112.0, 0.0, 0.0, 0.0, 1.700578871305314E9, 0.0, 2023-11-21 10:01:11.305
120.0, -1561.5822746255726, -1467.5261339576405, -3156.9603868675695, 1100.0634551123924, 3396.8840118508356, 3438.502960026617, 339.76886746512264, -4333.3326975503805, 0.17, 0.152, 0.9420000000000001, 192.0, 0.0, 0.0, 0.0, 0.0, 0.0, 0.0, 0.0, 0.0, 0.0, 1.700578871309327E9, 0.0, 2023-11-21 10:01:11.309
121.0, -1563.4821729042737, -1488.4473667678078, -3190.1527273837005, 1090.78748116344, 3397.7557298845927, 3438.502960026617, 339.9476814207651, -4334.80791268443, 0.17, 0.152, 0.9420000000000001, 192.0, 0.0, 0.0, 0.0, 0.0, 0.0, 0.0, 0.0, 0.0, 0.0, 1.700578871312335E9, 0.0, 2023-11-21 10:01:11.312
122.0, -1563.9962630267457, -1495.0858348710342, -3202.356779856298, 1075.9682745895714, 3385.328159967442, 3431.953898901212, 337.80191395305565, -4333.377401039291, 0.17, 0.152, 0.9420000000000001, 192.0, 0.0, 0.0, 0.0, 0.0, 0.0, 0.0, 0.0, 0.0, 0.0, 1.700578871316334E9, 0.0, 2023-11-21 10:01:11.316
123.0, -1561.604626370028, -1489.028512123646, -3199.004018188002, 1072.7496233880072, 3380.388424442819, 3430.1210558558773, 334.8961871738657, -4333.6232702283, 0.17, 0.152, 0.9420000000000001, 192.0, 0.0, 0.0, 0.0, 0.0, 0.0, 0.0, 0.0, 0.0, 0.0, 1.70057887132036E9, 0.0, 2023-11-21 10:01:11.320
124.0, -1563.9292077933799, -1495.3540558044979, -3206.1789281581555, 1075.6553501671972, 3389.3738257138525, 3436.2677855810866, 337.80191395305565, -4335.009078384528, 0.17, 0.152, 0.9420000000000001, 192.0, 0.0, 0.0, 0.0, 0.0, 0.0, 0.0, 0.0, 0.0, 0.0, 1.700578871324352E9, 0.0, 2023-11-21 10:01:11.324
125.0, -1568.153687495433, -1499.578535506551, -3209.911669482192, 1072.9284373436496, 3381.0142732875674, 3427.1706255877766, 330.7611144496339, -4342.988651155073, 0.17, 0.152, 0.9420000000000001, 192.0, 0.0, 0.0, 0.0, 0.0, 0.0, 0.0, 0.0, 0.0, 0.0, 1.700578871328362E9, 0.0, 2023-11-21 10:01:11.328
126.0, -1560.017652513701, -1492.24716332521, -3206.7377217695384, 1075.3647774892781, 3381.2154389876655, 3425.2260238201648, 327.49775975915907, -4342.653374988243, 0.17, 0.152, 0.9420000000000001, 192.0, 0.0, 0.0, 0.0, 0.0, 0.0, 0.0, 0.0, 0.0, 0.0, 1.700578871333398E9, 0.0, 2023-11-21 10:01:11.333
127.0, -1560.3976321694413, -1485.608695221984, -3195.651256519706, 1084.528992715954, 3390.156136769788, 3432.4232855347736, 333.5774342510026, -4335.925499907195, 0.17, 0.152, 0.9420000000000001, 192.0, 0.0, 0.0, 0.0, 0.0, 0.0, 0.0, 0.0, 0.0, 0.0, 1.700578871337387E9, 0.0, 2023-11-21 10:01:11.337
128.0, -1570.1876962408658, -1492.5153842586737, -3191.270314606466, 1086.1606700611915, 3392.3466077264084, 3434.189073346743, 340.8417511989774, -4321.978011367084, 0.17, 0.152, 0.9420000000000001, 192.0, 0.0, 0.0, 0.0, 0.0, 0.0, 0.0, 0.0, 0.0, 0.0, 1.700578871340383E9, 0.0, 2023-11-21 10:01:11.340
129.0, -1559.6823763468715, -1494.2364685817324, -3196.7688437424713, 1083.4561089820993, 3392.3913112153186, 3434.3678873023855, 337.8913209308769, -4328.124741092293, 0.17400000000000002, 0.14400000000000002, 0.9460000000000001, 192.0, 5.0, 112.0, 4.0, 128.0, 29.0, 144.0, 0.0, 0.0, 0.0, 1.700578871344395E9, 0.0, 2023-11-21 10:01:11.344
130.0, -1543.0750302165784, -1481.6971399423053, -3190.331541339343, 1084.9760276050602, 3391.676055392749, 3440.1122856273996, 343.1886843667846, -4319.206395054626, 0.17400000000000002, 0.14400000000000002, 0.9460000000000001, 192.0, 0.0, 0.0, 0.0, 0.0, 0.0, 0.0, 0.0, 0.0, 0.0, 1.7005788713484E9, 0.0, 2023-11-21 10:01:11.348
131.0, -1567.6843008618714, -1491.6883697138273, -3198.10994840979, 1084.9983793495155, 3390.871392592358, 3437.318317570486, 337.9360244197875, -4326.090732346861, 0.17400000000000002, 0.14400000000000002, 0.9460000000000001, 192.0, 0.0, 0.0, 0.0, 0.0, 0.0, 0.0, 0.0, 0.0, 0.0, 1.700578871352418E9, 0.0, 2023-11-21 10:01:11.352
132.0, -1572.892257319958, -1500.6514192404056, -3204.6366577907397, 1080.528030458454, 3384.2999797224975, 3428.4670267661845, 326.42487602530434, -4342.921595921707, 0.17400000000000002, 0.14400000000000002, 0.9460000000000001, 192.0, 0.0, 0.0, 0.0, 0.0, 0.0, 0.0, 0.0, 0.0, 0.0, 1.700578871356366E9, 0.0, 2023-11-21 10:01:11.356
133.0, -1562.8786758039805, -1489.4978987572074, -3194.332503596843, 1080.7962513919176, 3386.7586716125816, 3434.2337768356538, 338.2489488421618, -4321.955659622629, 0.17400000000000002, 0.14400000000000002, 0.9460000000000001, 192.0, 0.0, 0.0, 0.0, 0.0, 0.0, 0.0, 0.0, 0.0, 0.0, 1.700578871362432E9, 0.0, 2023-11-21 10:01:11.362
134.0, -1567.3937281839524, -1495.4211110378637, -3191.627942517751, 1079.946885102616, 3384.121165766855, 3429.674020966771, 333.2868615730836, -4329.175273081693, 0.17400000000000002, 0.14400000000000002, 0.9460000000000001, 192.0, 0.0, 0.0, 0.0, 0.0, 0.0, 0.0, 0.0, 0.0, 0.0, 1.700578871365395E9, 0.0, 2023-11-21 10:01:11.365
135.0, -1567.796059584148, -1494.1694133483666, -3178.0604336333795, 1088.4405479956326, 3389.262066991576, 3434.122018113377, 333.06334412853056, -4330.494026004556, 0.17400000000000002, 0.14400000000000002, 0.9460000000000001, 192.0, 0.0, 0.0, 0.0, 0.0, 0.0, 0.0, 0.0, 0.0, 0.0, 1.700578871368453E9, 0.0, 2023-11-21 10:01:11.368
136.0, -1569.5171439072067, -1494.7952621931151, -3173.970064398058, 1092.463861997588, 3389.642046647316, 3433.1161896128883, 328.7718091931116, -4335.947851651651, 0.17400000000000002, 0.14400000000000002, 0.9460000000000001, 192.0, 0.0, 0.0, 0.0, 0.0, 0.0, 0.0, 0.0, 0.0, 0.0, 1.700578871372444E9, 0.0, 2023-11-21 10:01:11.372
137.0, -1563.4151176709079, -1493.0965296145118, -3172.8077736863825, 1090.0051701075042, 3382.1095087658778, 3425.5612999869945, 325.2625853136284, -4339.837055186875, 0.17400000000000002, 0.14400000000000002, 0.9460000000000001, 192.0, 0.0, 0.0, 0.0, 0.0, 0.0, 0.0, 0.0, 0.0, 0.0, 1.700578871376461E9, 0.0, 2023-11-21 10:01:11.376
138.0, -1541.9127395049024, -1494.638799981928, -3205.4413205911305, 1077.555248445898, 3382.869468077358, 3430.7916081895364, 332.8398266839775, -4331.455151016135, 0.17400000000000002, 0.14400000000000002, 0.9460000000000001, 192.0, 0.0, 0.0, 0.0, 0.0, 0.0, 0.0, 0.0, 0.0, 0.0, 1.700578871380461E9, 0.0, 2023-11-21 10:01:11.380
139.0, -1549.6911465753492, -1493.051826125601, -3213.197375917122, 1075.2977222559123, 3383.1823924997325, 3433.4067622908074, 336.2596435856394, -4324.324944534891, 0.18, 0.148, 0.9440000000000001, 192.0, 5.0, 160.0, 4.0, 160.0, 29.0, 128.0, 0.0, 0.0, 0.0, 1.700578871384476E9, 0.0, 2023-11-21 10:01:11.384
140.0, -1564.0409665156565, -1495.1975935933106, -3200.2557158774994, 1085.3113037718897, 3389.999674558601, 3435.3066605695085, 337.6901552307791, -4328.437665514668, 0.18, 0.148, 0.9440000000000001, 192.0, 0.0, 0.0, 0.0, 0.0, 0.0, 0.0, 0.0, 0.0, 0.0, 1.700578871388494E9, 0.0, 2023-11-21 10:01:11.388
141.0, -1578.860173089525, -1488.0450353676124, -3186.1517651262006, 1089.9604666185935, 3392.6371804043274, 3436.7148204701925, 341.3558413214495, -4331.030467871484, 0.18, 0.148, 0.9440000000000001, 192.0, 0.0, 0.0, 0.0, 0.0, 0.0, 0.0, 0.0, 0.0, 0.0, 1.700578871392547E9, 0.0, 2023-11-21 10:01:11.392
142.0, -1579.731891123282, -1496.0022563937016, -3197.9981896875133, 1071.6990913986078, 3375.582799384928, 3421.7838551740474, 329.01767838212, -4335.3890580402685, 0.18, 0.148, 0.9440000000000001, 192.0, 0.0, 0.0, 0.0, 0.0, 0.0, 0.0, 0.0, 0.0, 0.0, 1.700578871395509E9, 0.0, 2023-11-21 10:01:11.395
143.0, -1579.9330568233797, -1494.705855215294, -3182.396672057709, 1080.1033473138032, 3383.2941512220086, 3424.063733108489, 324.1673498353183, -4342.876892432796, 0.18, 0.148, 0.9440000000000001, 192.0, 0.0, 0.0, 0.0, 0.0, 0.0, 0.0, 0.0, 0.0, 0.0, 1.7005788714005E9, 0.0, 2023-11-21 10:01:11.400
144.0, -1569.40538518493, -1494.9293726598469, -3192.499660551508, 1080.7291961585518, 3381.796584343503, 3424.577823230961, 321.28397480058374, -4348.777752968997, 0.18, 0.148, 0.9440000000000001, 192.0, 0.0, 0.0, 0.0, 0.0, 0.0, 0.0, 0.0, 0.0, 0.0, 1.700578871404525E9, 0.0, 2023-11-21 10:01:11.404
145.0, -1567.8407630730585, -1498.1480238614113, -3212.482120094552, 1069.3074547418898, 3376.1415929963105, 3423.862567408391, 331.6551842278462, -4321.486272989067, 0.18, 0.148, 0.9440000000000001, 192.0, 0.0, 0.0, 0.0, 0.0, 0.0, 0.0, 0.0, 0.0, 0.0, 1.700578871408549E9, 0.0, 2023-11-21 10:01:11.408
146.0, -1562.4763444037849, -1481.2501050531991, -3188.4539948050974, 1087.7252921730628, 3392.3913112153186, 3436.737172214648, 335.4326290407931, -4324.459055001624, 0.18, 0.148, 0.9440000000000001, 192.0, 0.0, 0.0, 0.0, 0.0, 0.0, 0.0, 0.0, 0.0, 0.0, 1.700578871412545E9, 0.0, 2023-11-21 10:01:11.412
147.0, -1560.7776118251816, -1479.7748899191488, -3185.5482680259074, 1079.8798298692502, 3382.578895399439, 3430.545739000528, 330.93992840527636, -4326.828339913885, 0.18, 0.148, 0.9440000000000001, 192.0, 0.0, 0.0, 0.0, 0.0, 0.0, 0.0, 0.0, 0.0, 0.0, 1.700578871416608E9, 0.0, 2023-11-21 10:01:11.416
148.0, -1562.3422339370532, -1478.8808201409365, -3187.135241882234, 1079.946885102616, 3384.5682006559614, 3435.552529758517, 335.4326290407931, -4323.877909645786, 0.18, 0.148, 0.9440000000000001, 192.0, 0.0, 0.0, 0.0, 0.0, 0.0, 0.0, 0.0, 0.0, 0.0, 1.700578871420613E9, 0.0, 2023-11-21 10:01:11.420
149.0, -1556.1731524673883, -1488.0673871120678, -3191.7620529844826, 1082.8079083928953, 3388.8820873358354, 3432.3785820458634, 332.39279179487136, -4328.214148070115, 0.18, 0.14400000000000002, 0.9420000000000001, 192.0, 5.0, 160.0, 4.0, 128.0, 29.0, 112.0, 0.0, 0.0, 0.0, 1.70057887142362E9, 0.0, 2023-11-21 10:01:11.423
150.0, -1559.6600246024161, -1490.123747601956, -3190.1303756392454, 1085.3560072608004, 3397.062825806478, 3431.3951052898296, 335.29851857406123, -4332.23746207207, 0.18, 0.14400000000000002, 0.9420000000000001, 192.0, 0.0, 0.0, 0.0, 0.0, 0.0, 0.0, 0.0, 0.0, 0.0, 1.700578871428601E9, 0.0, 2023-11-21 10:01:11.428
151.0, -1566.1643822389105, -1498.3268378170537, -3204.7037130241056, 1081.7350246590406, 3395.6546659057935, 3428.6011372329162, 332.4821987726926, -4333.2209388281035, 0.18, 0.14400000000000002, 0.9420000000000001, 192.0, 0.0, 0.0, 0.0, 0.0, 0.0, 0.0, 0.0, 0.0, 0.0, 1.700578871432615E9, 0.0, 2023-11-21 10:01:11.432
152.0, -1551.0322512426676, -1483.574686476551, -3183.2013348581, 1089.8487078963171, 3400.6614566637822, 3436.468951281184, 337.6007482529579, -4325.1743108241935, 0.18, 0.14400000000000002, 0.9420000000000001, 192.0, 0.0, 0.0, 0.0, 0.0, 0.0, 0.0, 0.0, 0.0, 0.0, 1.700578871436609E9, 0.0, 2023-11-21 10:01:11.436
153.0, -1548.1265244634778, -1481.0712910975567, -3183.8271837028487, 1086.8088706503954, 3396.749901384104, 3434.501997769117, 339.83592269848856, -4320.793368910953, 0.18, 0.14400000000000002, 0.9420000000000001, 192.0, 0.0, 0.0, 0.0, 0.0, 0.0, 0.0, 0.0, 0.0, 0.0, 1.700578871440661E9, 0.0, 2023-11-21 10:01:11.440
154.0, -1549.2888151751538, -1489.542602246118, -3197.9534861986026, 1083.3443502598227, 3395.431148461241, 3431.5962709899272, 336.75138196365623, -4332.483331261079, 0.18, 0.14400000000000002, 0.9420000000000001, 192.0, 0.0, 0.0, 0.0, 0.0, 0.0, 0.0, 0.0, 0.0, 0.0, 1.700578871444612E9, 0.0, 2023-11-21 10:01:11.444
155.0, -1553.602701855028, -1498.1033203725005, -3199.3839978437422, 1080.5503822029093, 3391.38548271483, 3424.421361019774, 328.6600504708351, -4341.2005115986485, 0.18, 0.14400000000000002, 0.9420000000000001, 192.0, 0.0, 0.0, 0.0, 0.0, 0.0, 0.0, 0.0, 0.0, 0.0, 1.700578871447612E9, 0.0, 2023-11-21 10:01:11.447
156.0, -1571.7523183527373, -1494.191765092822, -3182.9554656690916, 1086.4512427391103, 3392.0336833040337, 3428.444675021729, 333.5997859954579, -4331.298688804947, 0.18, 0.14400000000000002, 0.9420000000000001, 192.0, 0.0, 0.0, 0.0, 0.0, 0.0, 0.0, 0.0, 0.0, 0.0, 1.700578871451627E9, 0.0, 2023-11-21 10:01:11.451
157.0, -1565.3820711829749, -1495.6893319713274, -3191.5161837954743, 1081.466803725577, 3386.736319868126, 3426.9247563987683, 333.2645098286283, -4336.059610373928, 0.18, 0.14400000000000002, 0.9420000000000001, 192.0, 0.0, 0.0, 0.0, 0.0, 0.0, 0.0, 0.0, 0.0, 0.0, 1.70057887145564E9, 0.0, 2023-11-21 10:01:11.455
158.0, -1563.1468967374442, -1499.7573494621934, -3192.589067529329, 1075.0518530669037, 3386.1104710233776, 3424.2648988085866, 333.242158084173, -4337.981860397084, 0.18, 0.14400000000000002, 0.9420000000000001, 192.0, 0.0, 0.0, 0.0, 0.0, 0.0, 0.0, 0.0, 0.0, 0.0, 1.700578871460656E9, 0.0, 2023-11-21 10:01:11.460
159.0, -1563.571579882095, -1493.6553232258946, -3179.6027040007957, 1087.4123677506886, 3393.7324158826373, 3430.1657593447876, 336.6396232413797, -4339.635889486777, 0.17400000000000002, 0.14400000000000002, 0.9400000000000001, 192.0, 5.0, 112.0, 4.0, 128.0, 29.0, 96.0, 0.0, 0.0, 0.0, 1.700578871464611E9, 0.0, 2023-11-21 10:01:11.464
160.0, -1550.8981407759359, -1483.8652591544699, -3182.910762180181, 1090.7427776745294, 3396.3028664949975, 3432.4679890236844, 336.08082962999697, -4339.904110420241, 0.17400000000000002, 0.14400000000000002, 0.9400000000000001, 192.0, 0.0, 0.0, 0.0, 0.0, 0.0, 0.0, 0.0, 0.0, 0.0, 1.700578871469685E9, 0.0, 2023-11-21 10:01:11.469
161.0, -1556.7766495676817, -1486.346302789009, -3185.168288370167, 1089.111100329292, 3397.733378140137, 3430.925718656268, 335.29851857406123, -4341.893415676763, 0.17400000000000002, 0.14400000000000002, 0.9400000000000001, 192.0, 0.0, 0.0, 0.0, 0.0, 0.0, 0.0, 0.0, 0.0, 0.0, 1.700578871473689E9, 0.0, 2023-11-21 10:01:11.473
162.0, -1551.21106519831, -1495.1975935933106, -3192.656122762695, 1083.7913851489288, 3394.3359129829305, 3425.9859831316453, 330.7164109607233, -4345.089715133871, 0.17400000000000002, 0.14400000000000002, 0.9400000000000001, 192.0, 0.0, 0.0, 0.0, 0.0, 0.0, 0.0, 0.0, 0.0, 0.0, 1.700578871476706E9, 0.0, 2023-11-21 10:01:11.476
163.0, -1555.2120274558101, -1490.9060586578917, -3184.9894744145245, 1088.0382165954372, 3398.515689196073, 3432.4903407681395, 340.95350992125395, -4329.219976570604, 0.17400000000000002, 0.14400000000000002, 0.9400000000000001, 192.0, 0.0, 0.0, 0.0, 0.0, 0.0, 0.0, 0.0, 0.0, 0.0, 1.700578871479682E9, 0.0, 2023-11-21 10:01:11.479
164.0, -1558.1177542350001, -1474.343416016509, -3166.0351951164243, 1093.626152709264, 3399.8120903744807, 3433.4067622908074, 340.3947163098713, -4326.448360258146, 0.17400000000000002, 0.14400000000000002, 0.9400000000000001, 192.0, 0.0, 0.0, 0.0, 0.0, 0.0, 0.0, 0.0, 0.0, 0.0, 1.700578871483694E9, 0.0, 2023-11-21 10:01:11.483
165.0, -1553.669757088394, -1481.540677731118, -3191.1809076286445, 1083.3890537487334, 3392.2795524930425, 3428.2658610660865, 338.628928497902, -4323.028543356484, 0.17400000000000002, 0.14400000000000002, 0.9400000000000001, 192.0, 0.0, 0.0, 0.0, 0.0, 0.0, 0.0, 0.0, 0.0, 0.0, 1.700578871488716E9, 0.0, 2023-11-21 10:01:11.488
166.0, -1560.7552600807262, -1500.8525849405034, -3213.9349834841473, 1076.6388269232307, 3388.7703286135593, 3424.6895819532374, 333.68919297327915, -4326.04602885795, 0.17400000000000002, 0.14400000000000002, 0.9400000000000001, 192.0, 0.0, 0.0, 0.0, 0.0, 0.0, 0.0, 0.0, 0.0, 0.0, 1.700578871492706E9, 0.0, 2023-11-21 10:01:11.492
167.0, -1558.0730507460894, -1498.1703756058664, -3205.8213002468706, 1071.6767396541525, 3382.869468077358, 3419.906308639802, 329.7999894380557, -4335.120837106805, 0.17400000000000002, 0.14400000000000002, 0.9400000000000001, 192.0, 0.0, 0.0, 0.0, 0.0, 0.0, 0.0, 0.0, 0.0, 0.0, 1.700578871496709E9, 0.0, 2023-11-21 10:01:11.496
168.0, -1550.3840506534639, -1482.2782852981431, -3182.262561590977, 1078.1140420572808, 3386.1551745122883, 3419.123997583866, 327.81068418153336, -4333.600918483844, 0.17400000000000002, 0.14400000000000002, 0.9400000000000001, 192.0, 0.0, 0.0, 0.0, 0.0, 0.0, 0.0, 0.0, 0.0, 0.0, 1.700578871499723E9, 0.0, 2023-11-21 10:01:11.499
169.0, -1548.797076797137, -1469.6495496808948, -3157.3850700122202, 1093.2908765424343, 3396.8169566174697, 3427.5953087324274, 327.6989254592568, -4332.483331261079, 0.18, 0.152, 0.9440000000000001, 192.0, 5.0, 160.0, 4.0, 192.0, 29.0, 128.0, 0.0, 0.0, 0.0, 1.700578871503792E9, 0.0, 2023-11-21 10:01:11.503
170.0, -1551.188713453855, -1471.8847241264255, -3169.9020469071925, 1093.9167253871829, 3396.9287153397463, 3431.3951052898296, 330.7164109607233, -4327.029505613984, 0.18, 0.152, 0.9440000000000001, 192.0, 0.0, 0.0, 0.0, 0.0, 0.0, 0.0, 0.0, 0.0, 0.0, 1.700578871507756E9, 0.0, 2023-11-21 10:01:11.507
171.0, -1563.281007204176, -1488.9167534013693, -3196.813547231382, 1086.2500770390127, 3392.9724565711567, 3434.6808117247597, 333.75624820664507, -4331.119874849305, 0.18, 0.152, 0.9440000000000001, 192.0, 0.0, 0.0, 0.0, 0.0, 0.0, 0.0, 0.0, 0.0, 0.0, 1.700578871511761E9, 0.0, 2023-11-21 10:01:11.511
172.0, -1554.1614954664108, -1489.542602246118, -3192.320846595865, 1082.9643706040824, 3388.703273380193, 3435.8207506919803, 334.1585796068406, -4330.963412638118, 0.18, 0.152, 0.9440000000000001, 192.0, 0.0, 0.0, 0.0, 0.0, 0.0, 0.0, 0.0, 0.0, 0.0, 1.700578871516764E9, 0.0, 2023-11-21 10:01:11.516
173.0, -1565.2926642051536, -1480.378387019442, -3180.787346456927, 1082.2044112926021, 3385.372863456352, 3433.026782635067, 332.99628889516464, -4331.946889394151, 0.18, 0.152, 0.9440000000000001, 192.0, 0.0, 0.0, 0.0, 0.0, 0.0, 0.0, 0.0, 0.0, 0.0, 1.700578871520778E9, 0.0, 2023-11-21 10:01:11.520
174.0, -1554.1167919775, -1484.446404510308, -3191.6726460066616, 1084.752510160507, 3387.1610030127767, 3433.1161896128883, 335.20911159624, -4330.471674260101, 0.18, 0.152, 0.9440000000000001, 192.0, 0.0, 0.0, 0.0, 0.0, 0.0, 0.0, 0.0, 0.0, 0.0, 1.700578871524776E9, 0.0, 2023-11-21 10:01:11.524
175.0, -1550.0711262310895, -1487.5532969895955, -3196.1206431532673, 1081.8691351257723, 3386.6916163792157, 3433.6973349687264, 334.67266972931264, -4332.95271789464, 0.18, 0.152, 0.9440000000000001, 192.0, 0.0, 0.0, 0.0, 0.0, 0.0, 0.0, 0.0, 0.0, 0.0, 1.700578871528803E9, 0.0, 2023-11-21 10:01:11.528
176.0, -1562.0740130035895, -1485.608695221984, -3193.684303007639, 1081.9361903591384, 3384.1435175113106, 3429.58461398895, 328.88356791538814, -4340.172331353704, 0.18, 0.152, 0.9440000000000001, 192.0, 0.0, 0.0, 0.0, 0.0, 0.0, 0.0, 0.0, 0.0, 0.0, 1.700578871531784E9, 0.0, 2023-11-21 10:01:11.531
177.0, -1568.8465915735474, -1489.7214162017603, -3186.9340761821363, 1084.9760276050602, 3386.065767534467, 3433.7420384576367, 335.4773325297037, -4331.902185905241, 0.18, 0.152, 0.9440000000000001, 192.0, 0.0, 0.0, 0.0, 0.0, 0.0, 0.0, 0.0, 0.0, 0.0, 1.700578871535827E9, 0.0, 2023-11-21 10:01:11.535
178.0, -1555.6143588560055, -1482.5465062316068, -3156.9156833786587, 1099.9516963901158, 3392.7265873821484, 3437.2289105926648, 336.9078441748434, -4332.99742138355, 0.18, 0.152, 0.9440000000000001, 192.0, 0.0, 0.0, 0.0, 0.0, 0.0, 0.0, 0.0, 0.0, 0.0, 1.700578871539848E9, 0.0, 2023-11-21 10:01:11.539
179.0, -1548.1712279523883, -1475.5727619615511, -3171.064337618868, 1096.3754172772667, 3388.546811169006, 3430.769256445081, 331.56577725002495, -4340.820531942908, 0.176, 0.152, 0.934, 192.0, 5.0, 128.0, 4.0, 192.0, 29.0, 48.0, 0.0, 0.0, 0.0, 1.700578871543807E9, 0.0, 2023-11-21 10:01:11.543
180.0, -1564.5550566381285, -1497.1421953609224, -3207.6988467811166, 1074.0236728219597, 3373.8840668063244, 3423.3037737970085, 330.22467258270655, -4334.472636517601, 0.176, 0.152, 0.934, 192.0, 0.0, 0.0, 0.0, 0.0, 0.0, 0.0, 0.0, 0.0, 0.0, 1.70057887154883E9, 0.0, 2023-11-21 10:01:11.548
181.0, -1562.1410682369553, -1490.8166516800704, -3188.7892709719267, 1085.0654345828814, 3381.1707354987548, 3427.684715710249, 332.1245708614076, -4334.04795337295, 0.176, 0.152, 0.934, 192.0, 0.0, 0.0, 0.0, 0.0, 0.0, 0.0, 0.0, 0.0, 0.0, 1.700578871552827E9, 0.0, 2023-11-21 10:01:11.552
182.0, -1557.5142571347067, -1485.407529521886, -3179.334483067332, 1089.9604666185935, 3384.5234971670507, 3425.9859831316453, 327.9447946482652, -4335.187892340171, 0.176, 0.152, 0.934, 192.0, 0.0, 0.0, 0.0, 0.0, 0.0, 0.0, 0.0, 0.0, 0.0, 1.700578871555842E9, 0.0, 2023-11-21 10:01:11.555
183.0, -1561.4258124143855, -1489.184974334833, -3186.621151759762, 1087.591181706331, 3383.1376890108218, 3427.327087798964, 328.3024225595501, -4336.059610373928, 0.176, 0.152, 0.934, 192.0, 0.0, 0.0, 0.0, 0.0, 0.0, 0.0, 0.0, 0.0, 0.0, 1.700578871559845E9, 0.0, 2023-11-21 10:01:11.559
184.0, -1557.1789809678771, -1494.7729104486598, -3192.7231779960607, 1084.0372543379372, 3385.7528431120927, 3431.3056983120086, 333.2198063397177, -4334.942023151162, 0.176, 0.152, 0.934, 192.0, 0.0, 0.0, 0.0, 0.0, 0.0, 0.0, 0.0, 0.0, 0.0, 1.700578871563844E9, 0.0, 2023-11-21 10:01:11.563
185.0, -1555.8155245561034, -1490.1460993464113, -3188.5657535273735, 1083.7019781711076, 3384.5682006559614, 3432.1327128568546, 328.39182953737134, -4340.597014498355, 0.176, 0.152, 0.934, 192.0, 0.0, 0.0, 0.0, 0.0, 0.0, 0.0, 0.0, 0.0, 0.0, 1.700578871567882E9, 0.0, 2023-11-21 10:01:11.567
186.0, -1554.6532338444274, -1489.609657479484, -3191.4714803065635, 1080.662140925186, 3384.903476822791, 3431.1715878452765, 332.28103307259477, -4327.923575392196, 0.176, 0.152, 0.934, 192.0, 0.0, 0.0, 0.0, 0.0, 0.0, 0.0, 0.0, 0.0, 0.0, 1.700578871571829E9, 0.0, 2023-11-21 10:01:11.571
187.0, -1573.0487195311453, -1493.5659162480733, -3187.5375732824295, 1079.3880914912334, 3384.1435175113106, 3427.6623639657932, 325.8660824139217, -4341.066401131917, 0.176, 0.152, 0.934, 192.0, 0.0, 0.0, 0.0, 0.0, 0.0, 0.0, 0.0, 0.0, 0.0, 1.700578871576868E9, 0.0, 2023-11-21 10:01:11.576
188.0, -1566.5220101501955, -1496.605753493995, -3185.3247505813542, 1081.5562107033982, 3382.869468077358, 3428.288212810542, 325.6872684582792, -4342.183988354682, 0.176, 0.152, 0.934, 192.0, 0.0, 0.0, 0.0, 0.0, 0.0, 0.0, 0.0, 0.0, 0.0, 1.700578871580897E9, 0.0, 2023-11-21 10:01:11.580
189.0, -1558.1177542350001, -1496.1140151159782, -3183.9389424251253, 1083.590219448831, 3386.713968123671, 3428.936413399746, 328.88356791538814, -4340.842883687364, 0.176, 0.152, 0.936, 192.0, 5.0, 128.0, 4.0, 192.0, 29.0, 64.0, 0.0, 0.0, 0.0, 1.700578871583928E9, 0.0, 2023-11-21 10:01:11.583
190.0, -1553.446239643841, -1482.121823086956, -3189.01278841648, 1081.6009141923087, 3389.4408809472184, 3429.2716895665753, 332.21397783922885, -4335.187892340171, 0.176, 0.152, 0.936, 192.0, 0.0, 0.0, 0.0, 0.0, 0.0, 0.0, 0.0, 0.0, 0.0, 1.700578871587888E9, 0.0, 2023-11-21 10:01:11.587
191.0, -1551.3004721761313, -1473.5834567050288, -3177.7475092110053, 1087.1888503061355, 3392.6595321487825, 3433.4067622908074, 336.88549243038807, -4333.735028950576, 0.176, 0.152, 0.936, 192.0, 0.0, 0.0, 0.0, 0.0, 0.0, 0.0, 0.0, 0.0, 0.0, 1.700578871591876E9, 0.0, 2023-11-21 10:01:11.591
192.0, -1553.3791844104749, -1485.4298812663415, -3183.156631369189, 1089.915763129683, 3388.703273380193, 3428.377619788363, 333.5774342510026, -4334.539691750967, 0.176, 0.152, 0.936, 192.0, 0.0, 0.0, 0.0, 0.0, 0.0, 0.0, 0.0, 0.0, 0.0, 1.700578871595906E9, 0.0, 2023-11-21 10:01:11.595
193.0, -1540.6163383264945, -1487.5309452451404, -3199.518108310474, 1083.6349229377417, 3388.6585698912827, 3429.6293174778602, 338.5842250089914, -4322.514453234012, 0.176, 0.152, 0.936, 192.0, 0.0, 0.0, 0.0, 0.0, 0.0, 0.0, 0.0, 0.0, 0.0, 1.700578871600023E9, 0.0, 2023-11-21 10:01:11.600
194.0, -1559.9058937914247, -1484.8710876549587, -3187.0234831599573, 1088.0382165954372, 3392.5030699375952, 3433.7867419465474, 335.65614648534614, -4339.568834253411, 0.176, 0.152, 0.936, 192.0, 0.0, 0.0, 0.0, 0.0, 0.0, 0.0, 0.0, 0.0, 0.0, 1.70057887160492E9, 0.0, 2023-11-21 10:01:11.604
195.0, -1559.3918036689524, -1487.7768144341487, -3190.3762448282537, 1089.0887485848366, 3390.67022689226, 3432.1774163457653, 336.81843719702215, -4329.398790526247, 0.176, 0.152, 0.936, 192.0, 0.0, 0.0, 0.0, 0.0, 0.0, 0.0, 0.0, 0.0, 0.0, 1.700578871608966E9, 0.0, 2023-11-21 10:01:11.608
196.0, -1563.2586554597206, -1493.476509270252, -3197.2829338649435, 1086.7418154170293, 3389.709101880682, 3432.0209541345785, 335.4773325297037, -4334.092656861861, 0.176, 0.152, 0.936, 192.0, 0.0, 0.0, 0.0, 0.0, 0.0, 0.0, 0.0, 0.0, 0.0, 1.700578871611936E9, 0.0, 2023-11-21 10:01:11.611
197.0, -1569.0030537847347, -1489.8555266684923, -3191.225611117555, 1085.2442485385238, 3389.843212347414, 3432.4009337903185, 332.3257365615054, -4341.513436021022, 0.176, 0.152, 0.936, 192.0, 0.0, 0.0, 0.0, 0.0, 0.0, 0.0, 0.0, 0.0, 0.0, 1.700578871616014E9, 0.0, 2023-11-21 10:01:11.616
198.0, -1562.0069577702234, -1487.86622141197, -3190.644465761717, 1079.432794980144, 3385.037587289523, 3428.2658610660865, 329.3529545489496, -4337.177197596693, 0.176, 0.152, 0.936, 192.0, 0.0, 0.0, 0.0, 0.0, 0.0, 0.0, 0.0, 0.0, 0.0, 1.700578871619977E9, 0.0, 2023-11-21 10:01:11.619
199.0, -1554.250902444232, -1483.9099626433806, -3185.436509303631, 1082.115004314781, 3387.1610030127767, 3428.6234889773714, 330.29172781607247, -4332.058648116427, 0.17400000000000002, 0.15, 0.9400000000000001, 192.0, 5.0, 112.0, 4.0, 176.0, 29.0, 96.0, 0.0, 0.0, 0.0, 1.700578871623994E9, 0.0, 2023-11-21 10:01:11.623
200.0, -1557.2236844567879, -1487.9779801342465, -3187.626980260251, 1086.8088706503954, 3387.4068722017855, 3428.6234889773714, 331.7222394612121, -4332.5727382389, 0.17400000000000002, 0.15, 0.9400000000000001, 192.0, 0.0, 0.0, 0.0, 0.0, 0.0, 0.0, 0.0, 0.0, 0.0, 1.700578871629948E9, 0.0, 2023-11-21 10:01:11.629
201.0, -1549.1100012195113, -1487.0168551226682, -3188.1857738716335, 1087.144146817225, 3390.8266891034473, 3434.0549628800113, 337.44428604177074, -4324.369648023802, 0.17400000000000002, 0.15, 0.9400000000000001, 192.0, 0.0, 0.0, 0.0, 0.0, 0.0, 0.0, 0.0, 0.0, 0.0, 1.700578871634011E9, 0.0, 2023-11-21 10:01:11.634
202.0, -1548.8864837749582, -1475.0810235835343, -3179.222724345055, 1093.983780620549, 3395.5652589279725, 3438.6147187488937, 340.0370883985863, -4319.80989215492, 0.17400000000000002, 0.15, 0.9400000000000001, 192.0, 0.0, 0.0, 0.0, 0.0, 0.0, 0.0, 0.0, 0.0, 0.0, 1.700578871636975E9, 0.0, 2023-11-21 10:01:11.636
203.0, -1564.376242682486, -1485.2063638217885, -3186.621151759762, 1084.1266613157584, 3383.517668666562, 3426.053038365011, 331.7445912056674, -4330.2258050710925, 0.17400000000000002, 0.15, 0.9400000000000001, 192.0, 0.0, 0.0, 0.0, 0.0, 0.0, 0.0, 0.0, 0.0, 0.0, 1.700578871640044E9, 0.0, 2023-11-21 10:01:11.640
204.0, -1550.764030309204, -1494.504689515196, -3190.8232797173596, 1076.7952891344178, 3369.7266423376373, 3412.418474247274, 322.33450678998315, -4333.779732439486, 0.17400000000000002, 0.15, 0.9400000000000001, 192.0, 0.0, 0.0, 0.0, 0.0, 0.0, 0.0, 0.0, 0.0, 0.0, 1.700578871644047E9, 0.0, 2023-11-21 10:01:11.644
205.0, -1556.5978356120393, -1489.1179191014671, -3186.978779671047, 1086.3171322723786, 3380.768404098559, 3426.0753901094668, 333.73389646218976, -4326.694229447154, 0.17400000000000002, 0.15, 0.9400000000000001, 192.0, 0.0, 0.0, 0.0, 0.0, 0.0, 0.0, 0.0, 0.0, 0.0, 1.70057887164805E9, 0.0, 2023-11-21 10:01:11.648
206.0, -1569.2936264626535, -1491.3530935469978, -3198.2440588765216, 1081.9585421035936, 3380.120203509355, 3425.6507069648155, 332.75041970615626, -4334.115008606316, 0.17400000000000002, 0.15, 0.9400000000000001, 192.0, 0.0, 0.0, 0.0, 0.0, 0.0, 0.0, 0.0, 0.0, 0.0, 1.700578871652049E9, 0.0, 2023-11-21 10:01:11.652
207.0, -1565.538533394162, -1495.9128494158804, -3198.6463902767173, 1079.7457194025183, 3376.7450900966037, 3422.0744278519664, 328.6600504708351, -4339.099447619849, 0.17400000000000002, 0.15, 0.9400000000000001, 192.0, 0.0, 0.0, 0.0, 0.0, 0.0, 0.0, 0.0, 0.0, 0.0, 1.700578871656062E9, 0.0, 2023-11-21 10:01:11.656
208.0, -1568.5560188956285, -1482.6135614649727, -3187.336407582332, 1089.4910799850322, 3383.5847238999277, 3430.0763523669666, 332.3033848170501, -4342.7874854549755, 0.17400000000000002, 0.15, 0.9400000000000001, 192.0, 0.0, 0.0, 0.0, 0.0, 0.0, 0.0, 0.0, 0.0, 0.0, 1.70057887166009E9, 0.0, 2023-11-21 10:01:11.660
209.0, -1556.441373400852, -1473.896381127403, -3177.5016400219965, 1095.1907748211354, 3386.1775262567435, 3431.283346567553, 332.4598470282373, -4347.436648301679, 0.17200000000000001, 0.148, 0.9400000000000001, 192.0, 5.0, 96.0, 4.0, 160.0, 29.0, 96.0, 0.0, 0.0, 0.0, 1.70057887166408E9, 0.0, 2023-11-21 10:01:11.664
210.0, -1565.6502921164385, -1495.3093523155871, -3195.2489251195107, 1078.985760091038, 3376.0521860184895, 3419.7498464286145, 329.64352722686857, -4332.170406838704, 0.17200000000000001, 0.148, 0.9400000000000001, 192.0, 0.0, 0.0, 0.0, 0.0, 0.0, 0.0, 0.0, 0.0, 0.0, 1.700578871667085E9, 0.0, 2023-11-21 10:01:11.667
211.0, -1551.6804518318716, -1488.7155877012715, -3191.851459962304, 1088.5523067179092, 3389.709101880682, 3427.8858814103464, 333.08569587298587, -4332.930366150184, 0.17200000000000001, 0.148, 0.9400000000000001, 192.0, 0.0, 0.0, 0.0, 0.0, 0.0, 0.0, 0.0, 0.0, 0.0, 1.700578871671129E9, 0.0, 2023-11-21 10:01:11.671
212.0, -1557.536608879162, -1495.2870005711318, -3200.7698059999716, 1079.656312424697, 3381.2377907321206, 3426.9471081432234, 341.33348957699417, -4326.76128468052, 0.17200000000000001, 0.148, 0.9400000000000001, 192.0, 0.0, 0.0, 0.0, 0.0, 0.0, 0.0, 0.0, 0.0, 0.0, 1.700578871676103E9, 0.0, 2023-11-21 10:01:11.676
213.0, -1561.1799432253772, -1495.1752418488554, -3198.0875966653343, 1078.1140420572808, 3378.0861947639223, 3423.7284569416593, 340.014736654131, -4325.129607335282, 0.17200000000000001, 0.148, 0.9400000000000001, 192.0, 0.0, 0.0, 0.0, 0.0, 0.0, 0.0, 0.0, 0.0, 0.0, 1.70057887168015E9, 0.0, 2023-11-21 10:01:11.680
214.0, -1558.4530304018297, -1489.766119690671, -3193.4384338186305, 1081.4444519811216, 3378.265008719565, 3423.6390499638383, 336.1925883522735, -4328.95175563714, 0.17200000000000001, 0.148, 0.9400000000000001, 192.0, 0.0, 0.0, 0.0, 0.0, 0.0, 0.0, 0.0, 0.0, 0.0, 1.700578871684116E9, 0.0, 2023-11-21 10:01:11.684
215.0, -1560.2858734471647, -1490.3919685354197, -3192.946695440614, 1083.6796264266522, 3381.8189360879587, 3423.6837534527485, 333.1527511063518, -4334.249119073048, 0.17200000000000001, 0.148, 0.9400000000000001, 192.0, 0.0, 0.0, 0.0, 0.0, 0.0, 0.0, 0.0, 0.0, 0.0, 1.700578871688126E9, 0.0, 2023-11-21 10:01:11.688
216.0, -1555.7261175782821, -1488.3356080455314, -3193.3713785852647, 1083.0314258374485, 3384.9258285672463, 3425.5836517314497, 331.0069836386423, -4333.422104528201, 0.17200000000000001, 0.148, 0.9400000000000001, 192.0, 0.0, 0.0, 0.0, 0.0, 0.0, 0.0, 0.0, 0.0, 0.0, 1.700578871691144E9, 0.0, 2023-11-21 10:01:11.691
217.0, -1552.4851146322626, -1487.2627243116767, -3191.96321868458, 1081.8020798924065, 3383.5623721554725, 3429.5399105000392, 333.9350621622875, -4327.498892247545, 0.17200000000000001, 0.148, 0.9400000000000001, 192.0, 0.0, 0.0, 0.0, 0.0, 0.0, 0.0, 0.0, 0.0, 0.0, 1.700578871695137E9, 0.0, 2023-11-21 10:01:11.695
218.0, -1556.7542978232264, -1486.413358022375, -3189.7727477279604, 1079.946885102616, 3377.236828474621, 3424.130788341855, 329.59882373795796, -4329.085866103872, 0.17200000000000001, 0.148, 0.9400000000000001, 192.0, 0.0, 0.0, 0.0, 0.0, 0.0, 0.0, 0.0, 0.0, 0.0, 1.700578871699166E9, 0.0, 2023-11-21 10:01:11.699
219.0, -1565.8067543276256, -1487.799166178604, -3184.207163358589, 1082.9643706040824, 3379.1143750088663, 3423.3261255414636, 329.64352722686857, -4331.253985316037, 0.17200000000000001, 0.15, 0.9460000000000001, 192.0, 5.0, 96.0, 4.0, 176.0, 29.0, 144.0, 0.0, 0.0, 0.0, 1.700578871704161E9, 0.0, 2023-11-21 10:01:11.704
220.0, -1560.598797869539, -1483.1052998429896, -3165.8340294163263, 1090.4522049966104, 3383.2941512220086, 3423.5272912415617, 328.4141812818267, -4335.813741184919, 0.17200000000000001, 0.15, 0.9460000000000001, 192.0, 0.0, 0.0, 0.0, 0.0, 0.0, 0.0, 0.0, 0.0, 0.0, 1.700578871708167E9, 0.0, 2023-11-21 10:01:11.708
221.0, -1554.6979373333381, -1475.9750933617465, -3171.421965530153, 1088.619361951275, 3380.6342936318274, 3422.2979452965196, 330.3140795605278, -4335.322002806903, 0.17200000000000001, 0.15, 0.9460000000000001, 192.0, 0.0, 0.0, 0.0, 0.0, 0.0, 0.0, 0.0, 0.0, 0.0, 1.700578871712174E9, 0.0, 2023-11-21 10:01:11.712
222.0, -1548.6406145859498, -1486.413358022375, -3196.5453262979186, 1079.9915885915266, 3379.494354664607, 3423.348477285919, 332.9068819173434, -4332.639793472265, 0.17200000000000001, 0.15, 0.9460000000000001, 192.0, 0.0, 0.0, 0.0, 0.0, 0.0, 0.0, 0.0, 0.0, 0.0, 1.70057887171619E9, 0.0, 2023-11-21 10:01:11.716
223.0, -1553.312129177109, -1488.4250150233527, -3190.5103552949854, 1085.1324898162472, 3384.456441933685, 3425.516596498084, 332.4598470282373, -4331.231633571581, 0.17200000000000001, 0.15, 0.9460000000000001, 192.0, 0.0, 0.0, 0.0, 0.0, 0.0, 0.0, 0.0, 0.0, 0.0, 1.700578871719208E9, 0.0, 2023-11-21 10:01:11.719
224.0, -1556.9331117788688, -1492.381273791942, -3188.074015149357, 1088.2617340399902, 3388.591514657917, 3425.762465687092, 331.789294694578, -4329.465845759612, 0.17200000000000001, 0.15, 0.9460000000000001, 192.0, 0.0, 0.0, 0.0, 0.0, 0.0, 0.0, 0.0, 0.0, 0.0, 1.7005788717232E9, 0.0, 2023-11-21 10:01:11.723
225.0, -1557.6930710903491, -1495.9799046492465, -3193.840765218826, 1077.4881932125322, 3380.902514565291, 3417.96170687219, 327.9447946482652, -4331.835130671875, 0.17200000000000001, 0.15, 0.9460000000000001, 192.0, 0.0, 0.0, 0.0, 0.0, 0.0, 0.0, 0.0, 0.0, 0.0, 1.700578871727227E9, 0.0, 2023-11-21 10:01:11.727
226.0, -1569.606550885028, -1495.8234424380591, -3177.680453977639, 1084.1043095713032, 3381.506011665584, 3416.4417882492294, 323.92148064630993, -4342.00517439904, 0.17200000000000001, 0.15, 0.9460000000000001, 192.0, 0.0, 0.0, 0.0, 0.0, 0.0, 0.0, 0.0, 0.0, 0.0, 1.700578871732188E9, 0.0, 2023-11-21 10:01:11.732
227.0, -1562.5433996371507, -1478.4561369962857, -3160.4472590025975, 1098.6776469561635, 3389.3961774583076, 3422.476759252162, 326.3131173030278, -4337.959508652629, 0.17200000000000001, 0.15, 0.9460000000000001, 192.0, 0.0, 0.0, 0.0, 0.0, 0.0, 0.0, 0.0, 0.0, 0.0, 1.70057887173624E9, 0.0, 2023-11-21 10:01:11.736
228.0, -1553.2003704548324, -1469.4930874697075, -3171.6007794857956, 1093.6708561981745, 3389.619694902861, 3427.5729569879722, 333.5103790176367, -4326.917746891707, 0.17200000000000001, 0.15, 0.9460000000000001, 192.0, 0.0, 0.0, 0.0, 0.0, 0.0, 0.0, 0.0, 0.0, 0.0, 1.700578871740243E9, 0.0, 2023-11-21 10:01:11.740
229.0, -1555.6143588560055, -1471.3706340039532, -3173.031291130935, 1084.6407514382306, 3381.0142732875674, 3420.845081906925, 331.0963906164635, -4329.801121926442, 0.17200000000000001, 0.146, 0.9460000000000001, 192.0, 5.0, 96.0, 4.0, 144.0, 29.0, 144.0, 0.0, 0.0, 0.0, 1.700578871744244E9, 0.0, 2023-11-21 10:01:11.744
230.0, -1557.3354431790642, -1497.611581994484, -3213.331486383854, 1066.3570244737894, 3378.6673401197604, 3419.548680728517, 327.9000911593546, -4339.434723786679, 0.17200000000000001, 0.146, 0.9460000000000001, 192.0, 0.0, 0.0, 0.0, 0.0, 0.0, 0.0, 0.0, 0.0, 0.0, 1.700578871747247E9, 0.0, 2023-11-21 10:01:11.747
231.0, -1549.7134983198046, -1491.6213144804615, -3206.648314791717, 1076.5047164564987, 3387.2057065016875, 3430.34457330043, 336.30434707455004, -4332.528034749989, 0.17200000000000001, 0.146, 0.9460000000000001, 192.0, 0.0, 0.0, 0.0, 0.0, 0.0, 0.0, 0.0, 0.0, 0.0, 1.700578871751255E9, 0.0, 2023-11-21 10:01:11.751
232.0, -1555.5920071115504, -1486.413358022375, -3180.6979394791056, 1082.562039203887, 3380.47783142064, 3423.2590703080978, 334.02446914010875, -4335.612575484822, 0.17200000000000001, 0.146, 0.9460000000000001, 192.0, 0.0, 0.0, 0.0, 0.0, 0.0, 0.0, 0.0, 0.0, 0.0, 1.700578871755268E9, 0.0, 2023-11-21 10:01:11.755
233.0, -1551.9263210208799, -1477.8302881515372, -3187.716387238072, 1081.466803725577, 3374.867543562358, 3415.4359597487405, 329.0847336154859, -4337.020735385506, 0.17200000000000001, 0.146, 0.9460000000000001, 192.0, 0.0, 0.0, 0.0, 0.0, 0.0, 0.0, 0.0, 0.0, 0.0, 1.700578871759288E9, 0.0, 2023-11-21 10:01:11.759
234.0, -1572.7581468532262, -1499.7126459732826, -3216.661896307695, 1072.950789088105, 3375.1134127513665, 3417.805244661003, 328.10125685945235, -4346.699040734654, 0.17200000000000001, 0.146, 0.9460000000000001, 192.0, 0.0, 0.0, 0.0, 0.0, 0.0, 0.0, 0.0, 0.0, 0.0, 1.700578871764302E9, 0.0, 2023-11-21 10:01:11.764
235.0, -1558.9447687798463, -1490.794299935615, -3204.033160690446, 1072.3472919878116, 3378.4661744196624, 3424.443712764229, 332.72806796170096, -4340.395848798257, 0.17200000000000001, 0.146, 0.9460000000000001, 192.0, 0.0, 0.0, 0.0, 0.0, 0.0, 0.0, 0.0, 0.0, 0.0, 1.700578871768386E9, 0.0, 2023-11-21 10:01:11.768
236.0, -1558.1624577239106, -1484.5805149770397, -3197.081768164846, 1082.6737979261634, 3386.803375101492, 3431.260994823098, 335.790256952078, -4334.115008606316, 0.17200000000000001, 0.146, 0.9460000000000001, 192.0, 0.0, 0.0, 0.0, 0.0, 0.0, 0.0, 0.0, 0.0, 0.0, 1.700578871771324E9, 0.0, 2023-11-21 10:01:11.771
237.0, -1575.5521149101396, -1493.5212127591626, -3194.86894546377, 1083.5008124710098, 3386.1328227678327, 3428.1988058327206, 334.5832627514914, -4333.824435928397, 0.17200000000000001, 0.146, 0.9460000000000001, 192.0, 0.0, 0.0, 0.0, 0.0, 0.0, 0.0, 0.0, 0.0, 0.0, 1.700578871775322E9, 0.0, 2023-11-21 10:01:11.775
238.0, -1575.306245721131, -1485.094605099512, -3178.7756894559493, 1082.8973153707166, 3384.1435175113106, 3425.9412796427346, 332.8845301728881, -4340.999345898551, 0.17200000000000001, 0.146, 0.9460000000000001, 192.0, 0.0, 0.0, 0.0, 0.0, 0.0, 0.0, 0.0, 0.0, 0.0, 1.700578871779335E9, 0.0, 2023-11-21 10:01:11.779
239.0, -1561.1575914809218, -1475.5280584726404, -3178.038081888924, 1076.7952891344178, 3382.1989157436988, 3423.214366819187, 333.7785999511004, -4338.272433075003, 0.17400000000000002, 0.146, 0.9500000000000001, 192.0, 5.0, 112.0, 4.0, 144.0, 29.0, 176.0, 0.0, 0.0, 0.0, 1.700578871783347E9, 0.0, 2023-11-21 10:01:11.783
240.0, -1552.0827832320672, -1483.9099626433806, -3196.165346642178, 1075.1189083002698, 3383.00357854409, 3423.102608096911, 332.68336447279034, -4338.3841917972795, 0.17400000000000002, 0.146, 0.9500000000000001, 192.0, 0.0, 0.0, 0.0, 0.0, 0.0, 0.0, 0.0, 0.0, 0.0, 1.700578871787348E9, 0.0, 2023-11-21 10:01:11.787
241.0, -1556.1731524673883, -1487.5980004785063, -3197.104119909301, 1078.046986823915, 3387.6303896463382, 3429.338744799941, 339.50064653165896, -4322.626211956288, 0.17400000000000002, 0.146, 0.9500000000000001, 192.0, 0.0, 0.0, 0.0, 0.0, 0.0, 0.0, 0.0, 0.0, 0.0, 1.700578871792379E9, 0.0, 2023-11-21 10:01:11.792
242.0, -1556.150800722933, -1479.573724219051, -3180.2509045899997, 1087.591181706331, 3392.3913112153186, 3430.1210558558773, 333.73389646218976, -4339.121799364305, 0.17400000000000002, 0.146, 0.9500000000000001, 192.0, 0.0, 0.0, 0.0, 0.0, 0.0, 0.0, 0.0, 0.0, 0.0, 1.700578871797368E9, 0.0, 2023-11-21 10:01:11.797
243.0, -1559.7047280913268, -1480.4454422528079, -3167.331596294832, 1091.8380131528395, 3391.318427481464, 3429.5622622444944, 332.5045505171479, -4334.606746984333, 0.17400000000000002, 0.146, 0.9500000000000001, 192.0, 0.0, 0.0, 0.0, 0.0, 0.0, 0.0, 0.0, 0.0, 0.0, 1.700578871800394E9, 0.0, 2023-11-21 10:01:11.800
244.0, -1551.188713453855, -1484.4240527658526, -3183.6260180027507, 1075.431832722644, 3377.7062151081823, 3421.8509104074137, 332.370440050416, -4331.410447527224, 0.17400000000000002, 0.146, 0.9500000000000001, 192.0, 0.0, 0.0, 0.0, 0.0, 0.0, 0.0, 0.0, 0.0, 0.0, 1.700578871804388E9, 0.0, 2023-11-21 10:01:11.804
245.0, -1569.1371642514664, -1498.4833000282408, -3207.7435502700273, 1064.077146539348, 3375.2028197291875, 3419.325163283964, 335.74555346316737, -4334.003249884039, 0.17400000000000002, 0.146, 0.9500000000000001, 192.0, 0.0, 0.0, 0.0, 0.0, 0.0, 0.0, 0.0, 0.0, 0.0, 1.700578871807375E9, 0.0, 2023-11-21 10:01:11.807
246.0, -1557.0448705011454, -1486.860392911481, -3185.5035645369967, 1073.8895623552278, 3382.511840166073, 3423.5272912415617, 340.2829575875947, -4327.677706203188, 0.17400000000000002, 0.146, 0.9500000000000001, 192.0, 0.0, 0.0, 0.0, 0.0, 0.0, 0.0, 0.0, 0.0, 0.0, 1.700578871811388E9, 0.0, 2023-11-21 10:01:11.811
247.0, -1565.8738095609915, -1496.2481255827101, -3192.365550084776, 1072.2355332655352, 3380.544886654006, 3420.3309917844526, 336.952547663754, -4329.577604481889, 0.17400000000000002, 0.146, 0.9500000000000001, 192.0, 0.0, 0.0, 0.0, 0.0, 0.0, 0.0, 0.0, 0.0, 0.0, 1.700578871815399E9, 0.0, 2023-11-21 10:01:11.815
248.0, -1561.604626370028, -1495.2422970822213, -3199.6298670327506, 1070.7379663870295, 3384.769366356059, 3423.795512175025, 332.43749528378197, -4333.936194650673, 0.17400000000000002, 0.146, 0.9500000000000001, 192.0, 0.0, 0.0, 0.0, 0.0, 0.0, 0.0, 0.0, 0.0, 0.0, 1.700578871820394E9, 0.0, 2023-11-21 10:01:11.820
249.0, -1555.0108617557123, -1487.5532969895955, -3184.1848116141337, 1073.3531204883004, 3382.221267488154, 3421.24741330712, 327.16248359232947, -4338.04891563045, 0.17400000000000002, 0.146, 0.9500000000000001, 192.0, 0.0, 0.0, 0.0, 0.0, 0.0, 0.0, 0.0, 0.0, 0.0, 1.700578871824432E9, 0.0, 2023-11-21 10:01:11.824
250.0, -1557.4919053902515, -1489.609657479484, -3185.0565296478903, 1073.4201757216663, 3379.449651175696, 3422.812035418992, 333.73389646218976, -4330.203453326637, 0.17400000000000002, 0.148, 0.9440000000000001, 192.0, 5.0, 112.0, 4.0, 160.0, 29.0, 128.0, 0.0, 0.0, 0.0, 1.700578871827412E9, 0.0, 2023-11-21 10:01:11.827
251.0, -1556.6872425898605, -1485.6981021998051, -3187.8728494492593, 1071.5202774429654, 3381.506011665584, 3428.310564554997, 335.94671916326513, -4336.3278313073915, 0.17400000000000002, 0.148, 0.9440000000000001, 192.0, 0.0, 0.0, 0.0, 0.0, 0.0, 0.0, 0.0, 0.0, 0.0, 1.700578871831441E9, 0.0, 2023-11-21 10:01:11.831
252.0, -1558.341271679553, -1496.1363668604336, -3198.802852487904, 1064.3230157283565, 3373.973473784146, 3423.6614017082934, 335.96907090772044, -4334.874967917796, 0.17400000000000002, 0.148, 0.9440000000000001, 192.0, 0.0, 0.0, 0.0, 0.0, 0.0, 0.0, 0.0, 0.0, 0.0, 1.700578871835437E9, 0.0, 2023-11-21 10:01:11.835
253.0, -1552.7086320768158, -1486.189840577822, -3186.4423378041197, 1072.6825681546413, 3379.9860930426235, 3424.86839590888, 335.2314633406953, -4333.466808017112, 0.17400000000000002, 0.148, 0.9440000000000001, 192.0, 0.0, 0.0, 0.0, 0.0, 0.0, 0.0, 0.0, 0.0, 0.0, 1.700578871839469E9, 0.0, 2023-11-21 10:01:11.839
254.0, -1541.4880563602517, -1478.2996747850984, -3173.299512064399, 1078.851649624306, 3381.3719011988524, 3422.0073726186006, 330.62700398290207, -4337.9148051637185, 0.17400000000000002, 0.148, 0.9440000000000001, 192.0, 0.0, 0.0, 0.0, 0.0, 0.0, 0.0, 0.0, 0.0, 0.0, 1.700578871843443E9, 0.0, 2023-11-21 10:01:11.843
255.0, -1551.0769547315783, -1492.5600877475845, -3175.780555698938, 1078.8740013687614, 3379.2708372200536, 3423.214366819187, 335.790256952078, -4331.969241138607, 0.17400000000000002, 0.148, 0.9440000000000001, 192.0, 0.0, 0.0, 0.0, 0.0, 0.0, 0.0, 0.0, 0.0, 0.0, 1.700578871848492E9, 0.0, 2023-11-21 10:01:11.848
0.0, -1558.7436030797487, -1490.9507621468024, -3179.4015383006977, 1077.041158323426, 3376.0074825295787, 3423.9743261306676, 333.242158084173, -4336.618403985311, 0.17400000000000002, 0.148, 0.9440000000000001, 192.0, 0.0, 0.0, 0.0, 0.0, 0.0, 0.0, 0.0, 0.0, 0.0, 1.700578871852526E9, 0.0, 2023-11-21 10:01:11.852
1.0, -1555.1896757113548, -1474.3881195054198, -3173.455974275586, 1083.232591537546, 3381.3048459654865, 3429.5399105000392, 335.4549807852484, -4336.2160725851145, 0.17400000000000002, 0.148, 0.9440000000000001, 192.0, 0.0, 0.0, 0.0, 0.0, 0.0, 0.0, 0.0, 0.0, 0.0, 1.7005788718555E9, 0.0, 2023-11-21 10:01:11.855
2.0, -1542.091553460545, -1478.992578863213, -3177.211067344078, 1083.7019781711076, 3381.707177365682, 3427.260032565598, 334.918538918321, -4332.505683005534, 0.17400000000000002, 0.148, 0.9440000000000001, 192.0, 0.0, 0.0, 0.0, 0.0, 0.0, 0.0, 0.0, 0.0, 0.0, 1.700578871859493E9, 0.0, 2023-11-21 10:01:11.859
3.0, -1535.251919657221, -1483.127651587445, -3180.228552845544, 1077.8905246127279, 3377.8850290638247, 3428.9140616552904, 335.5890912519802, -4330.739895193565, 0.17400000000000002, 0.148, 0.9440000000000001, 192.0, 0.0, 0.0, 0.0, 0.0, 0.0, 0.0, 0.0, 0.0, 0.0, 1.700578871863534E9, 0.0, 2023-11-21 10:01:11.863
4.0, -1541.599815082528, -1492.8506604255035, -3201.9544484561025, 1072.6155129212752, 3374.9793022846347, 3431.2386430786423, 334.2703383291171, -4332.818607427908, 0.178, 0.152, 0.9400000000000001, 192.0, 5.0, 144.0, 4.0, 192.0, 29.0, 96.0, 0.0, 0.0, 0.0, 1.700578871867528E9, 0.0, 2023-11-21 10:01:11.867
5.0, -1578.4131382004189, -1505.412340809386, -3208.5705648148737, 1067.3852047187336, 3369.324310937442, 3424.287250553042, 327.6318702258909, -4340.753476709542, 0.178, 0.152, 0.9400000000000001, 192.0, 0.0, 0.0, 0.0, 0.0, 0.0, 0.0, 0.0, 0.0, 0.0, 1.700578871871522E9, 0.0, 2023-11-21 10:01:11.871
6.0, -1566.343196194553, -1499.8467564400146, -3196.746491998016, 1076.1023850563033, 3374.7334330956264, 3425.2930790535306, 328.6600504708351, -4337.624232485799, 0.178, 0.152, 0.9400000000000001, 192.0, 0.0, 0.0, 0.0, 0.0, 0.0, 0.0, 0.0, 0.0, 0.0, 1.700578871875535E9, 0.0, 2023-11-21 10:01:11.875
7.0, -1552.9768530102795, -1493.9235441593582, -3193.527840796452, 1077.4881932125322, 3375.1134127513665, 3425.829520920458, 329.4423615267708, -4336.730162707587, 0.178, 0.152, 0.9400000000000001, 192.0, 0.0, 0.0, 0.0, 0.0, 0.0, 0.0, 0.0, 0.0, 0.0, 1.700578871879537E9, 0.0, 2023-11-21 10:01:11.879
8.0, -1564.890332804958, -1492.5824394920396, -3190.5774105283513, 1076.5494199454095, 3371.5371336385174, 3423.0355528635446, 328.7494574486563, -4340.798180198452, 0.178, 0.152, 0.9400000000000001, 192.0, 0.0, 0.0, 0.0, 0.0, 0.0, 0.0, 0.0, 0.0, 0.0, 1.700578871882574E9, 0.0, 2023-11-21 10:01:11.882
9.0, -1569.2042194848323, -1491.3977970359085, -3188.431643060642, 1080.952713603105, 3372.900590050291, 3425.2483755646203, 333.39862029536016, -4337.870101674807, 0.178, 0.152, 0.9400000000000001, 192.0, 0.0, 0.0, 0.0, 0.0, 0.0, 0.0, 0.0, 0.0, 0.0, 1.700578871887581E9, 0.0, 2023-11-21 10:01:11.887
10.0, -1560.2858734471647, -1489.766119690671, -3187.1799453711446, 1084.014902593482, 3373.2135144726653, 3424.9130993977906, 333.8456551844663, -4338.004212141539, 0.178, 0.152, 0.9400000000000001, 192.0, 0.0, 0.0, 0.0, 0.0, 0.0, 0.0, 0.0, 0.0, 0.0, 1.700578871891608E9, 0.0, 2023-11-21 10:01:11.891
11.0, -1555.8155245561034, -1485.9439713888135, -3186.397634315209, 1082.6737979261634, 3372.4088516722745, 3422.610869718894, 334.06917262901936, -4337.534825507978, 0.178, 0.152, 0.9400000000000001, 192.0, 0.0, 0.0, 0.0, 0.0, 0.0, 0.0, 0.0, 0.0, 0.0, 1.700578871895606E9, 0.0, 2023-11-21 10:01:11.895
12.0, -1561.6269781144833, -1480.4677939972632, -3176.004073143491, 1088.0829200843477, 3376.7674418410593, 3424.9130993977906, 335.29851857406123, -4341.446380787656, 0.178, 0.152, 0.9400000000000001, 192.0, 0.0, 0.0, 0.0, 0.0, 0.0, 0.0, 0.0, 0.0, 0.0, 1.700578871899638E9, 0.0, 2023-11-21 10:01:11.899
13.0, -1544.2373209282543, -1480.0431108526125, -3183.2907418359214, 1082.852611881806, 3374.420508673252, 3424.3990092753183, 333.73389646218976, -4329.532900992978, 0.178, 0.152, 0.9400000000000001, 192.0, 0.0, 0.0, 0.0, 0.0, 0.0, 0.0, 0.0, 0.0, 0.0, 1.700578871903602E9, 0.0, 2023-11-21 10:01:11.903
14.0, -1564.3985944269414, -1493.0965296145118, -3188.029311660446, 1082.9867223485378, 3373.7499563395927, 3423.214366819187, 327.07307661450824, -4336.171369096204, 0.17200000000000001, 0.148, 0.9420000000000001, 192.0, 5.0, 96.0, 4.0, 160.0, 29.0, 112.0, 0.0, 0.0, 0.0, 1.700578871908608E9, 0.0, 2023-11-21 10:01:11.908
15.0, -1564.9350362938687, -1481.7194916867604, -3166.7951544279044, 1092.7097311865964, 3375.962779040668, 3427.2153290766873, 329.7999894380557, -4337.847749930353, 0.17200000000000001, 0.148, 0.9420000000000001, 192.0, 0.0, 0.0, 0.0, 0.0, 0.0, 0.0, 0.0, 0.0, 0.0, 1.700578871911598E9, 0.0, 2023-11-21 10:01:11.911
16.0, -1551.1663617093996, -1480.4007387638974, -3171.7348899525273, 1086.8982776282166, 3372.0735755054448, 3428.735247699648, 331.7669429501227, -4339.300613319947, 0.17200000000000001, 0.148, 0.9420000000000001, 192.0, 0.0, 0.0, 0.0, 0.0, 0.0, 0.0, 0.0, 0.0, 0.0, 1.700578871914613E9, 0.0, 2023-11-21 10:01:11.914
17.0, -1553.2450739437431, -1484.4911079992185, -3176.495811521508, 1076.9964548345156, 3367.6032266143834, 3422.521462741073, 330.22467258270655, -4334.942023151162, 0.17200000000000001, 0.148, 0.9420000000000001, 192.0, 0.0, 0.0, 0.0, 0.0, 0.0, 0.0, 0.0, 0.0, 0.0, 1.700578871919604E9, 0.0, 2023-11-21 10:01:11.919
18.0, -1545.8913500179472, -1480.8701253974589, -3191.4044250731977, 1073.5542861883982, 3373.5264388950395, 3425.6954104537263, 332.4598470282373, -4341.312270320925, 0.17200000000000001, 0.148, 0.9420000000000001, 192.0, 0.0, 0.0, 0.0, 0.0, 0.0, 0.0, 0.0, 0.0, 0.0, 1.700578871923632E9, 0.0, 2023-11-21 10:01:11.923
19.0, -1553.1333152214665, -1490.995465635713, -3191.6726460066616, 1079.6339606802417, 3376.7003866076934, 3426.030686620556, 333.66684122882384, -4337.221901085603, 0.17200000000000001, 0.148, 0.9420000000000001, 192.0, 0.0, 0.0, 0.0, 0.0, 0.0, 0.0, 0.0, 0.0, 0.0, 1.700578871927623E9, 0.0, 2023-11-21 10:01:11.927
20.0, -1558.9447687798463, -1487.2627243116767, -3174.8417824318153, 1086.6971119281188, 3379.0473197755005, 3429.96459364469, 337.9583761642428, -4332.23746207207, 0.17200000000000001, 0.148, 0.9420000000000001, 192.0, 0.0, 0.0, 0.0, 0.0, 0.0, 0.0, 0.0, 0.0, 0.0, 1.700578871931648E9, 0.0, 2023-11-21 10:01:11.931
21.0, -1560.1741147248883, -1489.1402708459225, -3187.716387238072, 1076.370605989767, 3367.2903021920088, 3424.9354511422457, 333.2198063397177, -4337.624232485799, 0.17200000000000001, 0.148, 0.9420000000000001, 192.0, 0.0, 0.0, 0.0, 0.0, 0.0, 0.0, 0.0, 0.0, 0.0, 1.700578871936673E9, 0.0, 2023-11-21 10:01:11.936
22.0, -1560.665853102905, -1500.1149773734783, -3202.401483345209, 1068.3239779858563, 3363.3340434234196, 3419.0345906060447, 327.6095184814356, -4336.730162707587, 0.17200000000000001, 0.148, 0.9420000000000001, 192.0, 0.0, 0.0, 0.0, 0.0, 0.0, 0.0, 0.0, 0.0, 0.0, 1.700578871939649E9, 0.0, 2023-11-21 10:01:11.939
23.0, -1557.5142571347067, -1492.8059569365928, -3192.4773088070524, 1074.0907280553256, 3370.28543594902, 3425.158968586799, 331.6998877167568, -4335.769037696009, 0.17200000000000001, 0.148, 0.9420000000000001, 192.0, 0.0, 0.0, 0.0, 0.0, 0.0, 0.0, 0.0, 0.0, 0.0, 1.700578871944688E9, 0.0, 2023-11-21 10:01:11.944
24.0, -1565.8067543276256, -1497.6786372278498, -3184.8330122033376, 1075.1189083002698, 3369.5701801264504, 3423.460236008196, 326.983669636687, -4349.090677391372, 0.178, 0.148, 0.9440000000000001, 192.0, 5.0, 144.0, 4.0, 160.0, 29.0, 128.0, 0.0, 0.0, 0.0, 1.700578871947668E9, 0.0, 2023-11-21 10:01:11.947
25.0, -1550.4511058868297, -1488.4920702567185, -3186.844669204315, 1072.4366989656328, 3365.1445347242993, 3418.632259205849, 323.00505912364235, -4340.9099389207295, 0.178, 0.148, 0.9440000000000001, 192.0, 0.0, 0.0, 0.0, 0.0, 0.0, 0.0, 0.0, 0.0, 0.0, 1.700578871951675E9, 0.0, 2023-11-21 10:01:11.951
26.0, -1552.9321495213687, -1490.1013958575006, -3189.236305861033, 1076.9964548345156, 3369.2125522151655, 3419.906308639802, 328.16831209281827, -4328.415313770212, 0.178, 0.148, 0.9440000000000001, 192.0, 0.0, 0.0, 0.0, 0.0, 0.0, 0.0, 0.0, 0.0, 0.0, 1.700578871955684E9, 0.0, 2023-11-21 10:01:11.955
27.0, -1566.052623516634, -1488.313256301076, -3189.5715820278624, 1080.9974170920154, 3374.196991228699, 3423.6614017082934, 330.7834661940892, -4334.42793302869, 0.178, 0.148, 0.9440000000000001, 192.0, 0.0, 0.0, 0.0, 0.0, 0.0, 0.0, 0.0, 0.0, 0.0, 1.700578871959711E9, 0.0, 2023-11-21 10:01:11.959
28.0, -1572.534629408673, -1496.6951604718163, -3207.96706771458, 1080.460975225088, 3380.254313976087, 3428.332916299453, 333.01864063961995, -4339.233558086581, 0.178, 0.148, 0.9440000000000001, 192.0, 0.0, 0.0, 0.0, 0.0, 0.0, 0.0, 0.0, 0.0, 0.0, 1.700578871962745E9, 0.0, 2023-11-21 10:01:11.962
29.0, -1564.018614771201, -1494.0129511371795, -3198.10994840979, 1078.3822629907445, 3374.308749950975, 3421.9179656407796, 330.403486538349, -4345.983784912084, 0.178, 0.148, 0.9440000000000001, 192.0, 0.0, 0.0, 0.0, 0.0, 0.0, 0.0, 0.0, 0.0, 0.0, 1.700578871966725E9, 0.0, 2023-11-21 10:01:11.966
30.0, -1548.6629663304052, -1476.8244596510483, -3177.0993086218014, 1090.6757224411635, 3384.5234971670507, 3428.6234889773714, 337.6007482529579, -4335.612575484822, 0.178, 0.148, 0.9440000000000001, 192.0, 0.0, 0.0, 0.0, 0.0, 0.0, 0.0, 0.0, 0.0, 0.0, 1.700578871970743E9, 0.0, 2023-11-21 10:01:11.970
31.0, -1530.7145155327935, -1475.0139683501684, -3180.586180756829, 1088.2840857844456, 3381.19308724321, 3428.735247699648, 339.5900535094802, -4328.035334114473, 0.178, 0.148, 0.9440000000000001, 192.0, 0.0, 0.0, 0.0, 0.0, 0.0, 0.0, 0.0, 0.0, 0.0, 1.700578871975731E9, 0.0, 2023-11-21 10:01:11.975
32.0, -1536.8165417690925, -1491.0848726135341, -3196.6347332757396, 1076.7952891344178, 3371.4030231717857, 3420.0180673620785, 326.8719109144105, -4343.189816855171, 0.178, 0.148, 0.9440000000000001, 192.0, 0.0, 0.0, 0.0, 0.0, 0.0, 0.0, 0.0, 0.0, 0.0, 1.700578871979744E9, 0.0, 2023-11-21 10:01:11.979
33.0, -1571.6852631193715, -1488.2238493232549, -3185.235343603533, 1080.952713603105, 3372.7664795835594, 3422.521462741073, 329.1070853599412, -4348.464828546623, 0.178, 0.148, 0.9440000000000001, 192.0, 0.0, 0.0, 0.0, 0.0, 0.0, 0.0, 0.0, 0.0, 0.0, 1.700578871983802E9, 0.0, 2023-11-21 10:01:11.983
34.0, -1590.9077633509355, -1493.5882679925285, -3177.278122577444, 1082.3385217593338, 3366.217418458154, 3414.363076014886, 326.82720742549986, -4345.670860489709, 0.176, 0.148, 0.936, 192.0, 5.0, 128.0, 4.0, 160.0, 29.0, 64.0, 0.0, 0.0, 0.0, 1.70057887198777E9, 0.0, 2023-11-21 10:01:11.987
35.0, -1575.5297631656842, -1499.734997717738, -3191.96321868458, 1074.9400943446274, 3361.4117934002634, 3410.0044858461006, 326.0225446251088, -4344.419162800213, 0.176, 0.148, 0.936, 192.0, 0.0, 0.0, 0.0, 0.0, 0.0, 0.0, 0.0, 0.0, 0.0, 1.700578871990773E9, 0.0, 2023-11-21 10:01:11.990
36.0, -1560.375280424986, -1495.5552215045955, -3191.91851519567, 1084.9760276050602, 3378.153249997288, 3426.8800529098576, 339.9253296763098, -4336.126665607294, 0.176, 0.148, 0.936, 192.0, 0.0, 0.0, 0.0, 0.0, 0.0, 0.0, 0.0, 0.0, 0.0, 1.700578871994792E9, 0.0, 2023-11-21 10:01:11.994
37.0, -1552.0380797431565, -1493.4318057813414, -3172.8748289197483, 1082.2938182704233, 3371.7830028275257, 3422.029724363056, 334.69502147376795, -4340.351145309347, 0.176, 0.148, 0.936, 192.0, 0.0, 0.0, 0.0, 0.0, 0.0, 0.0, 0.0, 0.0, 0.0, 1.700578871998849E9, 0.0, 2023-11-21 10:01:11.998
38.0, -1550.9428442648464, -1480.1995730637996, -3161.564846225363, 1089.8263561518618, 3377.90738080828, 3427.260032565598, 338.338355819983, -4333.153883594738, 0.176, 0.148, 0.936, 192.0, 0.0, 0.0, 0.0, 0.0, 0.0, 0.0, 0.0, 0.0, 0.0, 1.700578872002749E9, 0.0, 2023-11-21 10:01:12.002
39.0, -1557.7824780681703, -1498.5056517726962, -3208.503509581508, 1080.460975225088, 3380.187258742721, 3427.5953087324274, 336.2596435856394, -4333.690325461665, 0.176, 0.148, 0.936, 192.0, 0.0, 0.0, 0.0, 0.0, 0.0, 0.0, 0.0, 0.0, 0.0, 1.700578872007826E9, 0.0, 2023-11-21 10:01:12.007
40.0, -1557.6483676014386, -1500.405550051397, -3201.3509513558092, 1083.9254956156608, 3380.5672383984615, 3424.48841625314, 334.8291319404998, -4337.981860397084, 0.176, 0.148, 0.936, 192.0, 0.0, 0.0, 0.0, 0.0, 0.0, 0.0, 0.0, 0.0, 0.0, 1.700578872011794E9, 0.0, 2023-11-21 10:01:12.011
41.0, -1550.1158297200002, -1489.9002301574028, -3190.5327070394405, 1087.814699150884, 3380.7237006096484, 3422.7896836745363, 336.52786451910316, -4340.038220886972, 0.176, 0.148, 0.936, 192.0, 0.0, 0.0, 0.0, 0.0, 0.0, 0.0, 0.0, 0.0, 0.0, 1.700578872015871E9, 0.0, 2023-11-21 10:01:12.015
42.0, -1552.1721902098884, -1495.5775732490508, -3196.9700094425693, 1073.1296030437475, 3370.1513254822885, 3419.280459795053, 337.82426569751095, -4337.400715041246, 0.176, 0.148, 0.936, 192.0, 0.0, 0.0, 0.0, 0.0, 0.0, 0.0, 0.0, 0.0, 0.0, 1.700578872018844E9, 0.0, 2023-11-21 10:01:12.018
43.0, -1566.4549549168296, -1500.7855297071374, -3195.852422219804, 1068.726309386052, 3361.7694213115483, 3410.8538521354026, 332.25868132813946, -4336.28312781848, 0.176, 0.148, 0.936, 192.0, 0.0, 0.0, 0.0, 0.0, 0.0, 0.0, 0.0, 0.0, 0.0, 1.700578872022844E9, 0.0, 2023-11-21 10:01:12.022
44.0, -1557.603664112528, -1480.736014930727, -3175.6017417432954, 1081.7350246590406, 3371.581837127428, 3418.989887117134, 335.36557380742715, -4332.595089983355, 0.178, 0.146, 0.9380000000000001, 192.0, 5.0, 144.0, 4.0, 144.0, 29.0, 80.0, 0.0, 0.0, 0.0, 1.700578872026909E9, 0.0, 2023-11-21 10:01:12.026
45.0, -1539.6552133149164, -1481.1159945864672, -3189.459823305586, 1079.0528153244038, 3378.7567470975814, 3426.477721509662, 340.0594401430416, -4332.080999860883, 0.178, 0.146, 0.9380000000000001, 192.0, 0.0, 0.0, 0.0, 0.0, 0.0, 0.0, 0.0, 0.0, 0.0, 1.70057887203088E9, 0.0, 2023-11-21 10:01:12.030
46.0, -1547.9030070189247, -1498.282134328143, -3207.564736314385, 1072.660216410186, 3376.454517418685, 3425.829520920458, 339.9029779318545, -4332.438627772168, 0.178, 0.146, 0.9380000000000001, 192.0, 0.0, 0.0, 0.0, 0.0, 0.0, 0.0, 0.0, 0.0, 0.0, 1.70057887203589E9, 0.0, 2023-11-21 10:01:12.035
47.0, -1568.4889636622624, -1499.8467564400146, -3201.038026933435, 1078.1587455461915, 3375.7392615961153, 3419.325163283964, 333.97976565119814, -4340.9099389207295, 0.178, 0.146, 0.9380000000000001, 192.0, 0.0, 0.0, 0.0, 0.0, 0.0, 0.0, 0.0, 0.0, 0.0, 1.700578872039953E9, 0.0, 2023-11-21 10:01:12.039
48.0, -1559.6823763468715, -1497.3657128054754, -3191.7397012400274, 1082.115004314781, 3377.19212498571, 3418.922831883768, 334.42680054030427, -4334.338526050869, 0.178, 0.146, 0.9380000000000001, 192.0, 0.0, 0.0, 0.0, 0.0, 0.0, 0.0, 0.0, 0.0, 0.0, 1.700578872042892E9, 0.0, 2023-11-21 10:01:12.042
49.0, -1565.8738095609915, -1494.9517244043022, -3193.5054890519964, 1078.337559501834, 3376.6556831187827, 3418.7887214170364, 337.51134127513666, -4333.422104528201, 0.178, 0.146, 0.9380000000000001, 192.0, 0.0, 0.0, 0.0, 0.0, 0.0, 0.0, 0.0, 0.0, 0.0, 1.70057887204689E9, 0.0, 2023-11-21 10:01:12.046
50.0, -1549.244111686243, -1480.512497486174, -3194.0642826633793, 1080.8856583697388, 3380.0084447870786, 3421.96266912969, 344.6415477563796, -4322.0674183449055, 0.178, 0.146, 0.9380000000000001, 192.0, 0.0, 0.0, 0.0, 0.0, 0.0, 0.0, 0.0, 0.0, 0.0, 1.700578872050914E9, 0.0, 2023-11-21 10:01:12.050
51.0, -1554.2956059331425, -1474.1422503164115, -3172.8077736863825, 1092.3744550197669, 3386.1775262567435, 3425.404837775807, 342.00404191065337, -4324.52611023499, 0.178, 0.146, 0.9380000000000001, 192.0, 0.0, 0.0, 0.0, 0.0, 0.0, 0.0, 0.0, 0.0, 0.0, 1.700578872054861E9, 0.0, 2023-11-21 10:01:12.054
52.0, -1560.5317426361732, -1479.2607997966768, -3176.316997565865, 1088.3511410178114, 3381.751880854593, 3421.135654584844, 337.2654720861283, -4329.152921337238, 0.178, 0.146, 0.9380000000000001, 192.0, 0.0, 0.0, 0.0, 0.0, 0.0, 0.0, 0.0, 0.0, 0.0, 1.700578872058966E9, 0.0, 2023-11-21 10:01:12.058
53.0, -1564.8456293160475, -1498.7068174727938, -3203.6084775457953, 1077.6670071681747, 3377.0356627745227, 3418.386390016841, 333.1974545952624, -4339.457075531134, 0.178, 0.146, 0.9380000000000001, 192.0, 0.0, 0.0, 0.0, 0.0, 0.0, 0.0, 0.0, 0.0, 0.0, 1.700578872063939E9, 0.0, 2023-11-21 10:01:12.063
54.0, -1560.30822519162, -1496.5163465161738, -3201.2615443779882, 1079.8798298692502, 3380.164906998266, 3422.610869718894, 335.38792555188246, -4329.331735292881, 0.182, 0.15, 0.934, 192.0, 5.0, 176.0, 4.0, 176.0, 29.0, 48.0, 0.0, 0.0, 0.0, 1.700578872067964E9, 0.0, 2023-11-21 10:01:12.067
55.0, -1553.7144605773046, -1487.7097592007829, -3193.3490268408095, 1076.9517513456049, 3379.181430242232, 3421.9403173852347, 335.4326290407931, -4322.402694511735, 0.182, 0.15, 0.934, 192.0, 0.0, 0.0, 0.0, 0.0, 0.0, 0.0, 0.0, 0.0, 0.0, 1.700578872070937E9, 0.0, 2023-11-21 10:01:12.070
56.0, -1558.1401059794553, -1488.380311534442, -3190.689169250628, 1080.6174374362752, 3381.103680265389, 3421.448579007218, 334.2479865846618, -4333.9808981395845, 0.182, 0.15, 0.934, 192.0, 0.0, 0.0, 0.0, 0.0, 0.0, 0.0, 0.0, 0.0, 0.0, 1.700578872074938E9, 0.0, 2023-11-21 10:01:12.074
57.0, -1553.1109634770112, -1484.2452388102101, -3186.129413381745, 1082.78555664844, 3382.422433188252, 3421.4038755183074, 333.6221377399132, -4336.260776074026, 0.182, 0.15, 0.934, 192.0, 0.0, 0.0, 0.0, 0.0, 0.0, 0.0, 0.0, 0.0, 0.0, 1.700578872078954E9, 0.0, 2023-11-21 10:01:12.078
58.0, -1552.9768530102795, -1473.2034770492885, -3174.8641341762705, 1088.7087689290963, 3388.390348957819, 3428.0423436215337, 345.06623090103045, -4323.430874756679, 0.182, 0.15, 0.934, 192.0, 0.0, 0.0, 0.0, 0.0, 0.0, 0.0, 0.0, 0.0, 0.0, 1.700578872082965E9, 0.0, 2023-11-21 10:01:12.082
59.0, -1547.92535876338, -1482.6806166983388, -3187.1799453711446, 1083.1878880486356, 3382.645950632805, 3425.8742244093687, 343.8368849559885, -4319.698133432643, 0.182, 0.15, 0.934, 192.0, 0.0, 0.0, 0.0, 0.0, 0.0, 0.0, 0.0, 0.0, 0.0, 1.700578872088982E9, 0.0, 2023-11-21 10:01:12.088
60.0, -1570.6794346188826, -1492.1130528584783, -3189.169250627667, 1078.8963531132167, 3376.3651104408636, 3420.4651022511844, 333.01864063961995, -4328.884700403774, 0.182, 0.15, 0.934, 192.0, 0.0, 0.0, 0.0, 0.0, 0.0, 0.0, 0.0, 0.0, 0.0, 1.700578872091986E9, 0.0, 2023-11-21 10:01:12.091
61.0, -1564.219780471299, -1489.1179191014671, -3188.9233814386585, 1076.8623443677836, 3377.549752896995, 3421.180358073754, 332.7727714506116, -4326.269546302503, 0.182, 0.15, 0.934, 192.0, 0.0, 0.0, 0.0, 0.0, 0.0, 0.0, 0.0, 0.0, 0.0, 1.700578872096013E9, 0.0, 2023-11-21 10:01:12.096
62.0, -1558.2518647017318, -1494.2811720706432, -3197.3499890983094, 1075.2530187670015, 3377.3038837079866, 3425.9412796427346, 338.74068722017853, -4324.8837381462745, 0.182, 0.15, 0.934, 192.0, 0.0, 0.0, 0.0, 0.0, 0.0, 0.0, 0.0, 0.0, 0.0, 1.700578872099024E9, 0.0, 2023-11-21 10:01:12.099
63.0, -1562.5881031260615, -1483.8652591544699, -3187.783442471438, 1073.464879210577, 3376.2086482296763, 3425.7848174315477, 341.95933842174276, -4326.537767235967, 0.182, 0.15, 0.934, 192.0, 0.0, 0.0, 0.0, 0.0, 0.0, 0.0, 0.0, 0.0, 0.0, 1.700578872103024E9, 0.0, 2023-11-21 10:01:12.103
64.0, -1567.438431672863, -1481.5630294755733, -3179.8932766787148, 1075.431832722644, 3376.0745377629446, 3424.130788341855, 339.0312598980975, -4326.850691658341, 0.184, 0.15, 0.9400000000000001, 192.0, 5.0, 192.0, 4.0, 176.0, 29.0, 96.0, 0.0, 0.0, 0.0, 1.70057887210699E9, 0.0, 2023-11-21 10:01:12.106
65.0, -1558.4530304018297, -1495.5999249935062, -3200.076901921857, 1076.5047164564987, 3381.5730668989504, 3430.612794233894, 343.1216291334187, -4327.431837014179, 0.184, 0.15, 0.9400000000000001, 192.0, 0.0, 0.0, 0.0, 0.0, 0.0, 0.0, 0.0, 0.0, 0.0, 1.70057887211106E9, 0.0, 2023-11-21 10:01:12.111
66.0, -1549.1547047084218, -1490.0566923685901, -3194.8912972082258, 1078.9634083465826, 3385.2164012451653, 3430.612794233894, 341.4452482992707, -4327.454188758635, 0.184, 0.15, 0.9400000000000001, 192.0, 0.0, 0.0, 0.0, 0.0, 0.0, 0.0, 0.0, 0.0, 0.0, 1.700578872115047E9, 0.0, 2023-11-21 10:01:12.115
67.0, -1561.3364054365643, -1485.2063638217885, -3183.6483697472063, 1088.7981759069175, 3389.1503082692993, 3430.67984946726, 342.89811168886564, -4330.985764382573, 0.184, 0.15, 0.9400000000000001, 192.0, 0.0, 0.0, 0.0, 0.0, 0.0, 0.0, 0.0, 0.0, 0.0, 1.700578872121063E9, 0.0, 2023-11-21 10:01:12.121
68.0, -1554.4967716332403, -1489.766119690671, -3195.293628608421, 1078.5387252019316, 3380.835459331925, 3425.6954104537263, 349.9389111922874, -4323.922613134696, 0.184, 0.15, 0.9400000000000001, 192.0, 0.0, 0.0, 0.0, 0.0, 0.0, 0.0, 0.0, 0.0, 0.0, 1.700578872124063E9, 0.0, 2023-11-21 10:01:12.124
69.0, -1558.0954024905448, -1492.1354046029335, -3196.791195486927, 1070.201524520102, 3372.2076859721765, 3417.0676370939777, 343.59101576698015, -4326.694229447154, 0.184, 0.15, 0.9400000000000001, 192.0, 0.0, 0.0, 0.0, 0.0, 0.0, 0.0, 0.0, 0.0, 0.0, 1.700578872127069E9, 0.0, 2023-11-21 10:01:12.127
70.0, -1549.1323529639667, -1478.3890817629197, -3177.9933784000136, 1079.2763327689568, 3379.6731686202493, 3421.96266912969, 345.66972800132373, -4325.889566646763, 0.184, 0.15, 0.9400000000000001, 192.0, 0.0, 0.0, 0.0, 0.0, 0.0, 0.0, 0.0, 0.0, 0.0, 1.700578872131087E9, 0.0, 2023-11-21 10:01:12.131
71.0, -1558.3859751684638, -1478.3667300184645, -3157.5191804789524, 1089.2005073071132, 3379.38259594233, 3421.4262272627625, 348.48604780269244, -4317.060627586917, 0.184, 0.15, 0.9400000000000001, 192.0, 0.0, 0.0, 0.0, 0.0, 0.0, 0.0, 0.0, 0.0, 0.0, 1.700578872135203E9, 0.0, 2023-11-21 10:01:12.135
72.0, -1558.9000652909358, -1483.4182242653637, -3174.461802776075, 1081.7350246590406, 3377.6615116192716, 3420.3533435289078, 347.4578675577483, -4317.708828176121, 0.184, 0.15, 0.9400000000000001, 192.0, 0.0, 0.0, 0.0, 0.0, 0.0, 0.0, 0.0, 0.0, 0.0, 1.700578872139065E9, 0.0, 2023-11-21 10:01:12.139
73.0, -1566.6114171280167, -1492.1801080918442, -3212.4150648611862, 1074.7389286445296, 3381.8859913213246, 3424.1084365973998, 352.37525133791587, -4313.28318277397, 0.184, 0.15, 0.9400000000000001, 192.0, 0.0, 0.0, 0.0, 0.0, 0.0, 0.0, 0.0, 0.0, 0.0, 1.700578872143109E9, 0.0, 2023-11-21 10:01:12.143
74.0, -1566.4102514279189, -1484.8263841660482, -3195.1148146527785, 1075.6106466782865, 3382.6235988883495, 3424.354305786408, 350.11772514792983, -4313.886679874263, 0.184, 0.148, 0.9400000000000001, 192.0, 5.0, 192.0, 4.0, 160.0, 29.0, 96.0, 0.0, 0.0, 0.0, 1.700578872147126E9, 0.0, 2023-11-21 10:01:12.147
75.0, -1560.3305769360754, -1484.6475702104058, -3197.0594164203903, 1063.9206843281609, 3368.720813837149, 3420.1074743398995, 345.8261902125109, -4312.634982184766, 0.184, 0.148, 0.9400000000000001, 192.0, 0.0, 0.0, 0.0, 0.0, 0.0, 0.0, 0.0, 0.0, 0.0, 1.700578872150152E9, 0.0, 2023-11-21 10:01:12.150
76.0, -1561.4258124143855, -1491.1072243579895, -3200.4792333220526, 1069.9333035866384, 3368.2514272035874, 3417.5370237275392, 344.44038205628186, -4315.339543263858, 0.184, 0.148, 0.9400000000000001, 192.0, 0.0, 0.0, 0.0, 0.0, 0.0, 0.0, 0.0, 0.0, 0.0, 1.700578872154111E9, 0.0, 2023-11-21 10:01:12.154
77.0, -1563.5492281376396, -1486.7486341892045, -3191.7620529844826, 1074.4483559666105, 3373.5040871505844, 3418.587555716939, 344.5521407785584, -4318.222918298593, 0.184, 0.148, 0.9400000000000001, 192.0, 0.0, 0.0, 0.0, 0.0, 0.0, 0.0, 0.0, 0.0, 0.0, 1.700578872159146E9, 0.0, 2023-11-21 10:01:12.159
78.0, -1558.5200856351955, -1487.1509655894001, -3186.2858755929324, 1079.0528153244038, 3381.3271977099416, 3425.471893009173, 342.853408199955, -4326.0013253690395, 0.184, 0.148, 0.9400000000000001, 192.0, 0.0, 0.0, 0.0, 0.0, 0.0, 0.0, 0.0, 0.0, 0.0, 1.700578872163139E9, 0.0, 2023-11-21 10:01:12.163
79.0, -1561.0681845031006, -1494.3258755595537, -3192.969047185069, 1077.756414145996, 3378.4661744196624, 3426.7906459320366, 345.08858264548576, -4326.135435835771, 0.184, 0.148, 0.9400000000000001, 192.0, 0.0, 0.0, 0.0, 0.0, 0.0, 0.0, 0.0, 0.0, 0.0, 1.70057887216723E9, 0.0, 2023-11-21 10:01:12.167
80.0, -1561.5822746255726, -1490.347265046509, -3185.72708198155, 1078.4493182241104, 3373.839363317414, 3425.158968586799, 345.8038384680556, -4324.481406746078, 0.184, 0.148, 0.9400000000000001, 192.0, 0.0, 0.0, 0.0, 0.0, 0.0, 0.0, 0.0, 0.0, 0.0, 1.700578872171155E9, 0.0, 2023-11-21 10:01:12.171
81.0, -1553.312129177109, -1482.0547678535902, -3182.2178581020667, 1076.8623443677836, 3371.425374916241, 3420.0180673620785, 342.1828558662958, -4326.2918980469585, 0.184, 0.148, 0.9400000000000001, 192.0, 0.0, 0.0, 0.0, 0.0, 0.0, 0.0, 0.0, 0.0, 0.0, 1.700578872175167E9, 0.0, 2023-11-21 10:01:12.175
82.0, -1554.7202890777933, -1475.1927823058109, -3181.144974368212, 1078.4046147351999, 3377.281531963531, 3424.6895819532374, 345.73678323468965, -4325.71075269112, 0.184, 0.148, 0.9400000000000001, 192.0, 0.0, 0.0, 0.0, 0.0, 0.0, 0.0, 0.0, 0.0, 0.0, 1.700578872179176E9, 0.0, 2023-11-21 10:01:12.179
83.0, -1565.1585537384217, -1484.9157911438695, -3194.3101518523877, 1072.9060855991943, 3374.867543562358, 3424.3096022974973, 346.5190942906254, -4328.102389347839, 0.184, 0.148, 0.9400000000000001, 192.0, 0.0, 0.0, 0.0, 0.0, 0.0, 0.0, 0.0, 0.0, 0.0, 1.70057887218217E9, 0.0, 2023-11-21 10:01:12.182
84.0, -1575.5074114212289, -1497.0304366386458, -3203.943753712625, 1070.1568210311916, 3371.961816783168, 3420.286288295542, 342.94281517777625, -4334.897319662252, 0.184, 0.146, 0.9400000000000001, 192.0, 5.0, 192.0, 4.0, 144.0, 29.0, 96.0, 0.0, 0.0, 0.0, 1.700578872187188E9, 0.0, 2023-11-21 10:01:12.187
85.0, -1565.694995605349, -1490.9060586578917, -3196.4112158311864, 1072.7272716435518, 3371.581837127428, 3418.185224316743, 343.30044308906116, -4334.38322953978, 0.184, 0.146, 0.9400000000000001, 192.0, 0.0, 0.0, 0.0, 0.0, 0.0, 0.0, 0.0, 0.0, 0.0, 1.70057887219221E9, 0.0, 2023-11-21 10:01:12.192
86.0, -1557.7601263237152, -1486.3015993000984, -3191.2479628620104, 1075.3647774892781, 3373.928770295235, 3418.5652039724832, 345.33445183449413, -4332.706848705631, 0.184, 0.146, 0.9400000000000001, 192.0, 0.0, 0.0, 0.0, 0.0, 0.0, 0.0, 0.0, 0.0, 0.0, 1.700578872195199E9, 0.0, 2023-11-21 10:01:12.195
87.0, -1565.6279403719832, -1485.541639988618, -3189.2139541165775, 1077.3093792568898, 3376.588627885417, 3420.9121371402907, 347.32375709101643, -4332.975069639096, 0.184, 0.146, 0.9400000000000001, 192.0, 0.0, 0.0, 0.0, 0.0, 0.0, 0.0, 0.0, 0.0, 0.0, 1.700578872200215E9, 0.0, 2023-11-21 10:01:12.200
88.0, -1566.4549549168296, -1485.9663231332688, -3186.2635238484772, 1074.0907280553256, 3374.1746394842435, 3421.739151685137, 347.2567018576505, -4333.0421248724615, 0.184, 0.146, 0.9400000000000001, 192.0, 0.0, 0.0, 0.0, 0.0, 0.0, 0.0, 0.0, 0.0, 0.0, 1.700578872204237E9, 0.0, 2023-11-21 10:01:12.204
89.0, -1564.085670004567, -1480.4007387638974, -3175.1994103431, 1078.6057804352977, 3375.292226707009, 3423.482587752651, 346.8767222019103, -4335.3890580402685, 0.184, 0.146, 0.9400000000000001, 192.0, 0.0, 0.0, 0.0, 0.0, 0.0, 0.0, 0.0, 0.0, 0.0, 1.700578872208284E9, 0.0, 2023-11-21 10:01:12.208
90.0, -1563.728042093282, -1483.4629277542745, -3180.3850150567314, 1076.6611786676858, 3368.9890347706123, 3417.5370237275392, 345.06623090103045, -4332.639793472265, 0.184, 0.146, 0.9400000000000001, 192.0, 0.0, 0.0, 0.0, 0.0, 0.0, 0.0, 0.0, 0.0, 0.0, 1.700578872211238E9, 0.0, 2023-11-21 10:01:12.211
91.0, -1564.9797397827792, -1488.7155877012715, -3193.751358241005, 1069.3745099752557, 3369.0784417484338, 3416.061808593489, 346.38498382389355, -4332.393924283258, 0.184, 0.146, 0.9400000000000001, 192.0, 0.0, 0.0, 0.0, 0.0, 0.0, 0.0, 0.0, 0.0, 0.0, 1.70057887221524E9, 0.0, 2023-11-21 10:01:12.215
92.0, -1560.4646874028074, -1489.609657479484, -3196.746491998016, 1073.4872309550324, 3373.705252850682, 3421.6273929628605, 351.86116121544376, -4330.918709149207, 0.184, 0.146, 0.9400000000000001, 192.0, 0.0, 0.0, 0.0, 0.0, 0.0, 0.0, 0.0, 0.0, 0.0, 1.700578872219254E9, 0.0, 2023-11-21 10:01:12.219
93.0, -1559.6600246024161, -1484.9381428883248, -3186.4423378041197, 1078.9187048576719, 3376.6333313743276, 3421.6944481962264, 353.33637634949406, -4329.823473670897, 0.184, 0.146, 0.9400000000000001, 192.0, 0.0, 0.0, 0.0, 0.0, 0.0, 0.0, 0.0, 0.0, 0.0, 1.700578872224263E9, 0.0, 2023-11-21 10:01:12.224
94.0, -1560.5093908917179, -1485.0722533550565, -3179.0215586449576, 1077.6670071681747, 3371.514781894062, 3413.5360614700394, 347.32375709101643, -4333.422104528201, 0.18, 0.148, 0.936, 192.0, 5.0, 160.0, 4.0, 160.0, 29.0, 64.0, 0.0, 0.0, 0.0, 1.700578872228271E9, 0.0, 2023-11-21 10:01:12.228
95.0, -1558.6765478463826, -1485.9663231332688, -3170.0585091183793, 1084.886620627239, 3373.347624939397, 3417.9840586166456, 349.20130362526226, -4331.969241138607, 0.18, 0.148, 0.936, 192.0, 0.0, 0.0, 0.0, 0.0, 0.0, 0.0, 0.0, 0.0, 0.0, 1.700578872231276E9, 0.0, 2023-11-21 10:01:12.231
96.0, -1539.4540476148186, -1466.8108781350707, -3167.4433550171084, 1092.8438416533281, 3387.585686157428, 3428.1541023438103, 355.4150885838376, -4323.989668368062, 0.18, 0.148, 0.936, 192.0, 0.0, 0.0, 0.0, 0.0, 0.0, 0.0, 0.0, 0.0, 0.0, 1.700578872234294E9, 0.0, 2023-11-21 10:01:12.234
97.0, -1548.1935796968437, -1464.732165900727, -3182.687244735628, 1086.5630014613869, 3385.976360556646, 3427.1482738433215, 355.0574606725527, -4326.537767235967, 0.18, 0.148, 0.936, 192.0, 0.0, 0.0, 0.0, 0.0, 0.0, 0.0, 0.0, 0.0, 0.0, 1.700578872238286E9, 0.0, 2023-11-21 10:01:12.238
98.0, -1586.6162284155166, -1495.9128494158804, -3205.329561868854, 1064.5465331729094, 3364.0716509904446, 3411.837328891436, 341.4452482992707, -4351.012927414528, 0.18, 0.148, 0.936, 192.0, 0.0, 0.0, 0.0, 0.0, 0.0, 0.0, 0.0, 0.0, 0.0, 1.700578872242304E9, 0.0, 2023-11-21 10:01:12.242
99.0, -1571.0370625301675, -1490.1684510908665, -3195.293628608421, 1067.921646585661, 3365.7033283356823, 3414.0725033369667, 341.8475796994662, -4353.158694882238, 0.18, 0.148, 0.936, 192.0, 0.0, 0.0, 0.0, 0.0, 0.0, 0.0, 0.0, 0.0, 0.0, 1.700578872247303E9, 0.0, 2023-11-21 10:01:12.247
100.0, -1566.49965840574, -1481.8536021534924, -3189.258657605488, 1069.6203791642642, 3364.965720768657, 3416.330029526953, 348.597806524969, -4332.550386494445, 0.18, 0.148, 0.936, 192.0, 0.0, 0.0, 0.0, 0.0, 0.0, 0.0, 0.0, 0.0, 0.0, 1.700578872251344E9, 0.0, 2023-11-21 10:01:12.251
101.0, -1569.248922973743, -1483.8429074100147, -3185.0565296478903, 1074.7389286445296, 3370.441898160207, 3418.6993144392154, 349.6706902588237, -4336.596052240855, 0.18, 0.148, 0.936, 192.0, 0.0, 0.0, 0.0, 0.0, 0.0, 0.0, 0.0, 0.0, 0.0, 1.700578872255357E9, 0.0, 2023-11-21 10:01:12.255
102.0, -1566.477306661285, -1483.641741709917, -3185.168288370167, 1075.3647774892781, 3372.2747412055423, 3420.2415848066316, 348.82132396952204, -4337.9148051637185, 0.18, 0.148, 0.936, 192.0, 0.0, 0.0, 0.0, 0.0, 0.0, 0.0, 0.0, 0.0, 0.0, 1.700578872259359E9, 0.0, 2023-11-21 10:01:12.259
103.0, -1574.3674724540083, -1470.8788956259366, -3181.4131953016754, 1074.113079799781, 3375.4710406626514, 3428.735247699648, 357.5832077960024, -4325.934270135674, 0.18, 0.148, 0.936, 192.0, 0.0, 0.0, 0.0, 0.0, 0.0, 0.0, 0.0, 0.0, 0.0, 1.700578872262347E9, 0.0, 2023-11-21 10:01:12.262
104.0, -1563.21395197081, -1460.5300379431294, -3170.5725992408516, 1077.555248445898, 3374.956950540179, 3428.1317505993547, 359.05842293005264, -4325.755456180031, 0.18, 0.146, 0.9460000000000001, 192.0, 5.0, 160.0, 4.0, 144.0, 29.0, 144.0, 0.0, 0.0, 0.0, 1.700578872266382E9, 0.0, 2023-11-21 10:01:12.266
105.0, -1561.537571136662, -1487.3297795450426, -3187.939904682625, 1071.341463487323, 3372.7888313280146, 3418.0511138500115, 347.77079198012257, -4332.930366150184, 0.18, 0.146, 0.9460000000000001, 192.0, 0.0, 0.0, 0.0, 0.0, 0.0, 0.0, 0.0, 0.0, 0.0, 1.700578872270384E9, 0.0, 2023-11-21 10:01:12.270
106.0, -1568.4666119178073, -1490.9060586578917, -3181.234381346033, 1074.8506873668061, 3374.3981569287967, 3419.6604394507935, 348.6648617583349, -4326.38130502478, 0.18, 0.146, 0.9460000000000001, 192.0, 0.0, 0.0, 0.0, 0.0, 0.0, 0.0, 0.0, 0.0, 0.0, 1.700578872275355E9, 0.0, 2023-11-21 10:01:12.275
107.0, -1560.4199839138967, -1489.5873057350286, -3202.2226693895664, 1070.7379663870295, 3378.197953486199, 3426.8800529098576, 352.7775827381114, -4324.995496868551, 0.18, 0.146, 0.9460000000000001, 192.0, 0.0, 0.0, 0.0, 0.0, 0.0, 0.0, 0.0, 0.0, 0.0, 1.700578872279365E9, 0.0, 2023-11-21 10:01:12.279
108.0, -1569.0477572736452, -1489.319084801565, -3204.8378234908373, 1068.368681474767, 3380.2096104871766, 3425.762465687092, 351.48118155970354, -4329.957584137629, 0.18, 0.146, 0.9460000000000001, 192.0, 0.0, 0.0, 0.0, 0.0, 0.0, 0.0, 0.0, 0.0, 0.0, 1.7005788722834E9, 0.0, 2023-11-21 10:01:12.283
109.0, -1555.2120274558101, -1480.0431108526125, -3192.3431983403207, 1074.0460245664149, 3381.19308724321, 3425.360134286897, 353.35872809394937, -4315.85363338633, 0.18, 0.146, 0.9460000000000001, 192.0, 0.0, 0.0, 0.0, 0.0, 0.0, 0.0, 0.0, 0.0, 0.0, 1.700578872286377E9, 0.0, 2023-11-21 10:01:12.286
110.0, -1553.9826815107683, -1478.6125992074728, -3186.688206993128, 1075.945922845116, 3377.8179738304584, 3422.163834829788, 349.2907106030835, -4320.972182866595, 0.18, 0.146, 0.9460000000000001, 192.0, 0.0, 0.0, 0.0, 0.0, 0.0, 0.0, 0.0, 0.0, 0.0, 1.700578872290403E9, 0.0, 2023-11-21 10:01:12.290
111.0, -1575.6415218879608, -1481.0042358641906, -3186.4423378041197, 1077.4658414680769, 3379.6508168757937, 3425.717762198182, 346.4743908017148, -4334.76320919552, 0.18, 0.146, 0.9460000000000001, 192.0, 0.0, 0.0, 0.0, 0.0, 0.0, 0.0, 0.0, 0.0, 0.0, 1.700578872294401E9, 0.0, 2023-11-21 10:01:12.294
112.0, -1571.4170421859078, -1480.1101660859783, -3183.6036662582956, 1074.1801350331468, 3374.4652121621625, 3424.6895819532374, 346.69790824626784, -4333.131531850282, 0.18, 0.146, 0.9460000000000001, 192.0, 0.0, 0.0, 0.0, 0.0, 0.0, 0.0, 0.0, 0.0, 0.0, 1.700578872298447E9, 0.0, 2023-11-21 10:01:12.298
113.0, -1565.3373676940641, -1476.6456456954058, -3182.262561590977, 1074.7389286445296, 3372.5429621390062, 3423.3037737970085, 349.44717281427063, -4326.716581191609, 0.18, 0.146, 0.9460000000000001, 192.0, 0.0, 0.0, 0.0, 0.0, 0.0, 0.0, 0.0, 0.0, 0.0, 1.700578872303422E9, 0.0, 2023-11-21 10:01:12.303
114.0, -1572.7134433643155, -1485.2063638217885, -3194.332503596843, 1076.2588472674904, 3376.7674418410593, 3426.8800529098576, 349.2907106030835, -4323.967316623606, 0.178, 0.15, 0.9480000000000001, 192.0, 5.0, 144.0, 4.0, 176.0, 29.0, 160.0, 0.0, 0.0, 0.0, 1.700578872307434E9, 0.0, 2023-11-21 10:01:12.307
115.0, -1568.3995566844412, -1482.3229887870539, -3188.7669192274716, 1078.9634083465826, 3380.7907558430143, 3426.701238954215, 347.2119983687399, -4324.347296279347, 0.178, 0.15, 0.9480000000000001, 192.0, 0.0, 0.0, 0.0, 0.0, 0.0, 0.0, 0.0, 0.0, 0.0, 1.700578872311449E9, 0.0, 2023-11-21 10:01:12.311
116.0, -1561.112887992011, -1480.6466079529057, -3188.051663404902, 1074.6718734111635, 3379.829630831436, 3422.856738907902, 345.6026727679578, -4325.71075269112, 0.178, 0.15, 0.9480000000000001, 192.0, 0.0, 0.0, 0.0, 0.0, 0.0, 0.0, 0.0, 0.0, 0.0, 1.700578872314455E9, 0.0, 2023-11-21 10:01:12.314
117.0, -1566.2314374722764, -1478.1655643183667, -3185.078881392346, 1072.4366989656328, 3377.259180219076, 3422.186186574243, 348.4413443137818, -4321.687438689165, 0.178, 0.15, 0.9480000000000001, 192.0, 0.0, 0.0, 0.0, 0.0, 0.0, 0.0, 0.0, 0.0, 0.0, 1.700578872318398E9, 0.0, 2023-11-21 10:01:12.318
118.0, -1553.5356466216622, -1472.57762820454, -3179.6697592341616, 1078.0022833350042, 3381.863639576869, 3426.7235906986703, 352.2634926156393, -4318.938174121163, 0.178, 0.15, 0.9480000000000001, 192.0, 0.0, 0.0, 0.0, 0.0, 0.0, 0.0, 0.0, 0.0, 0.0, 1.700578872322459E9, 0.0, 2023-11-21 10:01:12.322
119.0, -1554.2285506997766, -1472.9576078602802, -3174.372395798254, 1077.175268790158, 3376.521572652051, 3418.4310935057515, 344.1274576339075, -4324.727275935087, 0.178, 0.15, 0.9480000000000001, 192.0, 0.0, 0.0, 0.0, 0.0, 0.0, 0.0, 0.0, 0.0, 0.0, 1.700578872326471E9, 0.0, 2023-11-21 10:01:12.326
120.0, -1563.7503938377374, -1465.2015525342886, -3143.3481744942874, 1088.3734927622668, 3380.2096104871766, 3421.1133028403883, 345.73678323468965, -4326.38130502478, 0.178, 0.15, 0.9480000000000001, 192.0, 0.0, 0.0, 0.0, 0.0, 0.0, 0.0, 0.0, 0.0, 0.0, 1.70057887233049E9, 0.0, 2023-11-21 10:01:12.330
121.0, -1557.0001670122347, -1465.3580147454757, -3162.369509025754, 1083.8137368933842, 3380.120203509355, 3424.2425470641315, 349.3130623475388, -4316.412426997713, 0.178, 0.15, 0.9480000000000001, 192.0, 0.0, 0.0, 0.0, 0.0, 0.0, 0.0, 0.0, 0.0, 0.0, 1.700578872335502E9, 0.0, 2023-11-21 10:01:12.335
122.0, -1567.4607834173185, -1487.1062621004894, -3211.2527741495105, 1065.7758791179513, 3374.196991228699, 3423.706105197204, 348.3295855915053, -4325.867214902308, 0.178, 0.15, 0.9480000000000001, 192.0, 0.0, 0.0, 0.0, 0.0, 0.0, 0.0, 0.0, 0.0, 0.0, 1.700578872339504E9, 0.0, 2023-11-21 10:01:12.339
123.0, -1568.5113154067178, -1481.2054015642884, -3192.209087873589, 1072.6378646657306, 3371.2689127050535, 3424.7566371866033, 345.75913497914496, -4333.310345805925, 0.178, 0.15, 0.9480000000000001, 192.0, 0.0, 0.0, 0.0, 0.0, 0.0, 0.0, 0.0, 0.0, 0.0, 1.700578872342508E9, 0.0, 2023-11-21 10:01:12.342
124.0, -1562.275178703687, -1466.6320641794282, -3171.5113725079746, 1085.4901177275322, 3381.461308176674, 3432.87032042388, 352.93404494929854, -4326.716581191609, 0.17200000000000001, 0.15, 0.9460000000000001, 192.0, 5.0, 96.0, 4.0, 176.0, 29.0, 144.0, 0.0, 0.0, 0.0, 1.700578872346557E9, 0.0, 2023-11-21 10:01:12.346
125.0, -1550.9651960093017, -1454.830343107026, -3161.229570058533, 1088.8875828847388, 3381.8859913213246, 3432.244471579131, 352.59876878246894, -4327.09656084735, 0.17200000000000001, 0.15, 0.9460000000000001, 192.0, 0.0, 0.0, 0.0, 0.0, 0.0, 0.0, 0.0, 0.0, 0.0, 1.700578872350532E9, 0.0, 2023-11-21 10:01:12.350
126.0, -1562.0293095146787, -1473.896381127403, -3173.746546953505, 1079.0975188133143, 3372.230037716632, 3418.6546109503047, 339.5900535094802, -4340.19468309816, 0.17200000000000001, 0.15, 0.9460000000000001, 192.0, 0.0, 0.0, 0.0, 0.0, 0.0, 0.0, 0.0, 0.0, 0.0, 1.700578872354537E9, 0.0, 2023-11-21 10:01:12.354
127.0, -1555.055565244623, -1488.6932359568164, -3182.4190238021642, 1075.1859635336357, 3372.0959272499, 3417.1346923273436, 340.0370883985863, -4333.578566739388, 0.17200000000000001, 0.15, 0.9460000000000001, 192.0, 0.0, 0.0, 0.0, 0.0, 0.0, 0.0, 0.0, 0.0, 0.0, 1.700578872358611E9, 0.0, 2023-11-21 10:01:12.358
