%OpenBCI Raw EXG Data
%Number of channels = 8
%Sample Rate = 250 Hz
%Board = OpenBCI_GUI$BoardCytonSerial
Sample Index, EXG Channel 0, EXG Channel 1, EXG Channel 2, EXG Channel 3, EXG Channel 4, EXG Channel 5, EXG Channel 6, EXG Channel 7, Accel Channel 0, Accel Channel 1, Accel Channel 2, Other, Other, Other, Other, Other, Other, Other, Analog Channel 0, Analog Channel 1, Analog Channel 2, Timestamp, Other, Timestamp (Formatted)
182.0, -1640.37217383053, -1446.828418592026, -3118.8283108268156, 1063.9653878170716, 3373.414680172763, 3432.7138582126927, 494.84527049604304, -4350.811761714431, 0.0, 0.0, 0.0, 192.0, 0.0, 0.0, 0.0, 0.0, 0.0, 0.0, 0.0, 0.0, 0.0, 1.700579050663348E9, 0.0, 2023-11-21 10:04:10.663
183.0, -1652.3974123474852, -1455.7467646296936, -3115.721418347528, 1068.882771597239, 3371.581837127428, 3432.0880093679443, 494.86762224049835, -4345.268529089514, 0.0, 0.0, 0.0, 192.0, 0.0, 0.0, 0.0, 0.0, 0.0, 0.0, 0.0, 0.0, 0.0, 1.700579050663359E9, 0.0, 2023-11-21 10:04:10.663
184.0, -1664.668520053449, -1464.866276367459, -3129.467741187542, 1060.6126261487755, 3365.770383569048, 3426.2095005761985, 489.9949419492414, -4349.984747169584, 0.0, 0.0, 0.0, 192.0, 0.0, 0.0, 0.0, 0.0, 0.0, 0.0, 0.0, 0.0, 0.0, 1.700579050663368E9, 0.0, 2023-11-21 10:04:10.663
0.0, 0.0, 0.0, 0.0, 0.0, 0.0, 0.0, 0.0, 0.0, -0.158, 0.064, 0.902, 192.0, 251.0, 16.0, 2.0, 0.0, 28.0, 48.0, 0.0, 0.0, 0.0, 1.700579050734181E9, 0.0, 2023-11-21 10:04:10.734
1.0, -1024.760428042463, -1000.2852678639017, -2949.5809018112304, 1115.687324486652, 3513.9400975632784, 3862.9849389773535, 886.1125571861932, -3875.881895528066, -0.158, 0.064, 0.902, 192.0, 0.0, 0.0, 0.0, 0.0, 0.0, 0.0, 0.0, 0.0, 0.0, 1.700579050762239E9, 0.0, 2023-11-21 10:04:10.762
2.0, -1006.5214045669323, -997.0889684067928, -2943.3447651082, 1120.560004777909, 3513.090731273977, 3862.5602558327028, 882.0445396953273, -3874.205514693918, -0.158, 0.064, 0.902, 192.0, 0.0, 0.0, 0.0, 0.0, 0.0, 0.0, 0.0, 0.0, 0.0, 1.700579050765232E9, 0.0, 2023-11-21 10:04:10.765
3.0, -985.8460409457733, -963.7178139350193, -2941.4225150850434, 1117.4754640430765, 3510.095597516966, 3856.949967974421, 875.2049058920034, -3879.011139751809, -0.158, 0.064, 0.902, 192.0, 0.0, 0.0, 0.0, 0.0, 0.0, 0.0, 0.0, 0.0, 0.0, 1.700579050768181E9, 0.0, 2023-11-21 10:04:10.768
4.0, -1010.0753319353262, -978.8275931868069, -2947.0998581766917, 1116.559042520409, 3515.7505888641585, 3860.459191853904, 874.1320221581486, -3883.1462124760405, -0.158, 0.064, 0.902, 192.0, 0.0, 0.0, 0.0, 0.0, 0.0, 0.0, 0.0, 0.0, 0.0, 1.700579050772254E9, 0.0, 2023-11-21 10:04:10.772
5.0, -1039.4902276385103, -1008.6001168012759, -2956.6887565480183, 1113.7427227190403, 3517.1140452759323, 3863.6331395665575, 880.8375454947408, -3876.485392628359, -0.158, 0.064, 0.902, 192.0, 0.0, 0.0, 0.0, 0.0, 0.0, 0.0, 0.0, 0.0, 0.0, 1.700579050775258E9, 0.0, 2023-11-21 10:04:10.775
6.0, -1023.5310820974211, -1003.8615469767508, -2957.5157710928647, 1109.138263361247, 3512.956620807245, 3858.6039970641136, 880.2116966499922, -3877.4465176399376, -0.158, 0.064, 0.902, 192.0, 0.0, 0.0, 0.0, 0.0, 0.0, 0.0, 0.0, 0.0, 0.0, 1.700579050778268E9, 0.0, 2023-11-21 10:04:10.778
7.0, -1024.3804483867227, -1011.1482156691809, -2955.481762347432, 1110.0546848839147, 3513.381303951896, 3860.3474331316274, 881.1504699171151, -3879.726395574379, -0.158, 0.064, 0.902, 192.0, 0.0, 0.0, 0.0, 0.0, 0.0, 0.0, 0.0, 0.0, 0.0, 1.700579050781271E9, 0.0, 2023-11-21 10:04:10.781
8.0, -1036.7633148149628, -1017.0267244609266, -2968.7810502983393, 1099.661123712197, 3504.4629579142284, 3849.2833196262504, 870.2651703673805, -3887.9965410228424, -0.23, -0.08600000000000001, 0.904, 192.0, 248.0, 208.0, 253.0, 80.0, 28.0, 64.0, 0.0, 0.0, 0.0, 1.700579050785317E9, 0.0, 2023-11-21 10:04:10.785
9.0, -1026.1909396876026, -989.7799479699073, -2959.3262623937444, 1100.2422690680348, 3504.93234454779, 3847.0257934362644, 869.1252314001598, -3887.258933455817, -0.23, -0.08600000000000001, 0.904, 192.0, 0.0, 0.0, 0.0, 0.0, 0.0, 0.0, 0.0, 0.0, 0.0, 1.700579050788295E9, 0.0, 2023-11-21 10:04:10.788
10.0, -1014.6350878042088, -992.5515642823655, -2953.3583466241776, 1106.657219726708, 3512.8895655738793, 3858.9616249753985, 880.0105309498944, -3872.752651304323, -0.23, -0.08600000000000001, 0.904, 192.0, 0.0, 0.0, 0.0, 0.0, 0.0, 0.0, 0.0, 0.0, 0.0, 1.700579050791267E9, 0.0, 2023-11-21 10:04:10.791
11.0, -999.3688463412341, -996.2619538619464, -2948.3292041217333, 1118.4365890546549, 3526.345315735974, 3871.903285015021, 889.5100223433999, -3864.6389680670463, -0.23, -0.08600000000000001, 0.904, 192.0, 0.0, 0.0, 0.0, 0.0, 0.0, 0.0, 0.0, 0.0, 0.0, 1.700579050795304E9, 0.0, 2023-11-21 10:04:10.795
12.0, -1000.2629161194463, -980.0345873873935, -2936.1698551380464, 1120.4705978000877, 3525.1383215353876, 3870.7633460478005, 888.4594903540004, -3864.035470966753, -0.23, -0.08600000000000001, 0.904, 192.0, 0.0, 0.0, 0.0, 0.0, 0.0, 0.0, 0.0, 0.0, 0.0, 1.700579050798358E9, 0.0, 2023-11-21 10:04:10.798
13.0, -1010.4329598466111, -973.4631745175332, -2932.3924103250993, 1117.4978157875319, 3518.544556921072, 3866.8741425125772, 885.9337432305507, -3865.644796567535, -0.23, -0.08600000000000001, 0.904, 192.0, 0.0, 0.0, 0.0, 0.0, 0.0, 0.0, 0.0, 0.0, 0.0, 1.700579050801346E9, 0.0, 2023-11-21 10:04:10.801
14.0, -1024.3580966422674, -997.3571893402565, -2947.7704105103508, 1110.1664436061913, 3506.832242826491, 3854.357165617605, 873.5285250578553, -3877.2453519398396, -0.23, -0.08600000000000001, 0.904, 192.0, 0.0, 0.0, 0.0, 0.0, 0.0, 0.0, 0.0, 0.0, 0.0, 1.700579050804333E9, 0.0, 2023-11-21 10:04:10.804
15.0, -1038.5067508824768, -1014.791550015396, -2969.3845473986325, 1096.911859144194, 3496.6174956104155, 3843.583624790147, 868.0076441773945, -3888.9576660344205, -0.23, -0.08600000000000001, 0.904, 192.0, 0.0, 0.0, 0.0, 0.0, 0.0, 0.0, 0.0, 0.0, 0.0, 1.70057905080841E9, 0.0, 2023-11-21 10:04:10.808
16.0, -1038.7079165825744, -994.5632212833431, -2971.597370099708, 1092.7320829310518, 3495.8575362989354, 3843.3377556011387, 864.2078476199923, -3896.7360731048675, -0.23, -0.08600000000000001, 0.904, 192.0, 0.0, 0.0, 0.0, 0.0, 0.0, 0.0, 0.0, 0.0, 0.0, 1.700579050811414E9, 0.0, 2023-11-21 10:04:10.811
17.0, -1003.213346387547, -987.3212560798236, -2961.2038089279904, 1101.4716150130766, 3502.7865770800804, 3854.0665929396864, 870.3545773452017, -3884.4426136544485, -0.23, -0.08600000000000001, 0.904, 192.0, 0.0, 0.0, 0.0, 0.0, 0.0, 0.0, 0.0, 0.0, 0.0, 1.700579050814427E9, 0.0, 2023-11-21 10:04:10.814
18.0, -1007.370770856234, -1014.1209976817368, -2963.1260589511467, 1105.7631499484958, 3507.6816091157925, 3860.2803778982616, 871.0027779344056, -3885.649607855035, -0.26, -0.164, 0.906, 192.0, 247.0, 224.0, 250.0, 224.0, 28.0, 80.0, 0.0, 0.0, 0.0, 1.700579050818401E9, 0.0, 2023-11-21 10:04:10.818
19.0, -1015.2385849045021, -1004.6885615215972, -2956.1076111921802, 1110.0993883728252, 3512.017847540122, 3862.426145365971, 878.9599989604949, -3869.5116483583033, -0.26, -0.164, 0.906, 192.0, 0.0, 0.0, 0.0, 0.0, 0.0, 0.0, 0.0, 0.0, 0.0, 1.700579050821405E9, 0.0, 2023-11-21 10:04:10.821
20.0, -1013.2492796479797, -989.8022997143627, -2950.989061711915, 1109.272373827979, 3509.0003620386556, 3860.235674409351, 878.5576675602994, -3875.680729827968, -0.26, -0.164, 0.906, 192.0, 0.0, 0.0, 0.0, 0.0, 0.0, 0.0, 0.0, 0.0, 0.0, 1.700579050825399E9, 0.0, 2023-11-21 10:04:10.825
21.0, -1026.1685879431473, -1004.6215062882312, -2958.409840871077, 1103.8632516697946, 3507.9498300492564, 3860.6603575540016, 876.3224931147687, -3881.581590364169, -0.26, -0.164, 0.906, 192.0, 0.0, 0.0, 0.0, 0.0, 0.0, 0.0, 0.0, 0.0, 0.0, 1.700579050829389E9, 0.0, 2023-11-21 10:04:10.829
22.0, -1010.4553115910663, -991.7469014819744, -2959.460372860476, 1103.3491615473226, 3512.5989928959602, 3866.3153489011943, 881.3069321283022, -3874.7643083053003, -0.26, -0.164, 0.906, 192.0, 0.0, 0.0, 0.0, 0.0, 0.0, 0.0, 0.0, 0.0, 0.0, 1.700579050833391E9, 0.0, 2023-11-21 10:04:10.833
23.0, -1024.469855364544, -1016.4232273606334, -2961.5167333503646, 1107.2607168270013, 3517.963411565234, 3870.942160003443, 886.1125571861932, -3872.5738373486806, -0.26, -0.164, 0.906, 192.0, 0.0, 0.0, 0.0, 0.0, 0.0, 0.0, 0.0, 0.0, 0.0, 1.700579050837401E9, 0.0, 2023-11-21 10:04:10.837
24.0, -1023.0616954638596, -1005.9626109555496, -2947.3904308546107, 1111.529900017965, 3514.8565190859463, 3866.784735534756, 880.5693245612771, -3880.106375230119, -0.26, -0.164, 0.906, 192.0, 0.0, 0.0, 0.0, 0.0, 0.0, 0.0, 0.0, 0.0, 0.0, 1.700579050841398E9, 0.0, 2023-11-21 10:04:10.841
25.0, -1015.7973785158848, -980.436918787589, -2946.3622506096663, 1106.4560540266102, 3506.6534288708485, 3859.0510319532195, 873.2379523799364, -3890.00819802382, -0.26, -0.164, 0.906, 192.0, 0.0, 0.0, 0.0, 0.0, 0.0, 0.0, 0.0, 0.0, 0.0, 1.700579050845444E9, 0.0, 2023-11-21 10:04:10.845
26.0, -1019.7536372844742, -982.6497414886644, -2943.769448252851, 1108.3783040497667, 3504.0382747695776, 3855.5418080737363, 864.6995859980091, -3901.9216778184987, -0.26, -0.164, 0.906, 192.0, 0.0, 0.0, 0.0, 0.0, 0.0, 0.0, 0.0, 0.0, 0.0, 1.700579050848423E9, 0.0, 2023-11-21 10:04:10.848
27.0, -1007.1249016672257, -991.8139567153403, -2936.929814449527, 1118.5483477769315, 3514.387132452385, 3865.711851800901, 872.0980134127157, -3890.432881168471, -0.26, -0.164, 0.906, 192.0, 0.0, 0.0, 0.0, 0.0, 0.0, 0.0, 0.0, 0.0, 0.0, 1.700579050852444E9, 0.0, 2023-11-21 10:04:10.852
28.0, -1020.8488727627841, -1017.9207942391389, -2967.7752217978505, 1099.4376062676438, 3501.378417179396, 3861.330909887661, 876.5907140482324, -3875.43486063896, -0.28200000000000003, -0.202, 0.91, 192.0, 247.0, 48.0, 249.0, 176.0, 28.0, 112.0, 0.0, 0.0, 0.0, 1.700579050856427E9, 0.0, 2023-11-21 10:04:10.856
29.0, -1021.0947419517926, -1010.4329598466111, -2969.563361354275, 1098.8341091673506, 3503.0771497579995, 3866.047127967731, 881.1728216615703, -3873.266741426795, -0.28200000000000003, -0.202, 0.91, 192.0, 0.0, 0.0, 0.0, 0.0, 0.0, 0.0, 0.0, 0.0, 0.0, 1.700579050861419E9, 0.0, 2023-11-21 10:04:10.861
30.0, -1022.949936741583, -1009.1589104126585, -2965.0036054853927, 1099.7505306900182, 3504.865289314424, 3869.4445931249375, 882.0445396953273, -3871.4786018703703, -0.28200000000000003, -0.202, 0.91, 192.0, 0.0, 0.0, 0.0, 0.0, 0.0, 0.0, 0.0, 0.0, 0.0, 1.700579050865523E9, 0.0, 2023-11-21 10:04:10.865
31.0, -1043.9158730406612, -1024.2016344310803, -2964.623625829652, 1099.1917370786355, 3499.634981111882, 3864.706023300412, 873.9979116914168, -3878.9217327739875, -0.28200000000000003, -0.202, 0.91, 192.0, 0.0, 0.0, 0.0, 0.0, 0.0, 0.0, 0.0, 0.0, 0.0, 1.700579050869477E9, 0.0, 2023-11-21 10:04:10.869
32.0, -1051.694280111108, -1022.6370123192087, -2956.2864251478227, 1103.0138853804929, 3497.8244898110024, 3858.872217997577, 863.537295286333, -3890.72345384639, -0.28200000000000003, -0.202, 0.91, 192.0, 0.0, 0.0, 0.0, 0.0, 0.0, 0.0, 0.0, 0.0, 0.0, 1.700579050872486E9, 0.0, 2023-11-21 10:04:10.872
33.0, -1010.4776633355217, -995.5243462949213, -2945.8034569982838, 1110.725237217574, 3504.7758823366025, 3868.103488457619, 875.0484436808161, -3873.3785001490714, -0.28200000000000003, -0.202, 0.91, 192.0, 0.0, 0.0, 0.0, 0.0, 0.0, 0.0, 0.0, 0.0, 0.0, 1.700579050876467E9, 0.0, 2023-11-21 10:04:10.876
34.0, -1000.3299713528123, -991.9927706709827, -2952.307814634778, 1106.2548883265124, 3502.2948387020638, 3869.1316687025633, 875.0931471697268, -3868.2152471798954, -0.28200000000000003, -0.202, 0.91, 192.0, 0.0, 0.0, 0.0, 0.0, 0.0, 0.0, 0.0, 0.0, 0.0, 1.700579050880479E9, 0.0, 2023-11-21 10:04:10.880
35.0, -1002.5204423094324, -993.691503249586, -2955.7723350253505, 1097.0906730998365, 3491.0742629854994, 3857.9334447304545, 867.0912226547268, -3875.747785061334, -0.28200000000000003, -0.202, 0.91, 192.0, 0.0, 0.0, 0.0, 0.0, 0.0, 0.0, 0.0, 0.0, 0.0, 1.700579050884487E9, 0.0, 2023-11-21 10:04:10.884
36.0, -1003.7944917433849, -986.9859799129939, -2947.9045209770825, 1108.490062772043, 3502.607763124438, 3868.4164128799935, 873.2379523799364, -3873.0432239822417, -0.28200000000000003, -0.202, 0.91, 192.0, 0.0, 0.0, 0.0, 0.0, 0.0, 0.0, 0.0, 0.0, 0.0, 1.700579050888498E9, 0.0, 2023-11-21 10:04:10.888
37.0, -1022.1452739411919, -1001.6487242756754, -2950.1396954226134, 1109.7417604615403, 3503.278315458097, 3865.980072734365, 870.5110395563888, -3878.2064769514177, -0.28200000000000003, -0.202, 0.91, 192.0, 0.0, 0.0, 0.0, 0.0, 0.0, 0.0, 0.0, 0.0, 0.0, 1.700579050893518E9, 0.0, 2023-11-21 10:04:10.893
38.0, -1039.400820660689, -1028.180244944125, -2963.997776984904, 1099.88464115675, 3495.7234258322032, 3859.6321773090576, 866.7782982323525, -3884.8225933101885, -0.29, -0.214, 0.906, 192.0, 246.0, 240.0, 249.0, 80.0, 28.0, 80.0, 0.0, 0.0, 0.0, 1.700579050897542E9, 0.0, 2023-11-21 10:04:10.897
39.0, -1026.0344774764153, -1020.1336169402143, -2964.1989426850014, 1099.7728824344733, 3501.937210790779, 3866.672976812479, 874.7578710028972, -3880.061671741208, -0.29, -0.214, 0.906, 192.0, 0.0, 0.0, 0.0, 0.0, 0.0, 0.0, 0.0, 0.0, 0.0, 1.700579050900542E9, 0.0, 2023-11-21 10:04:10.900
40.0, -1014.4786255930217, -993.9597241830497, -2948.7762390108396, 1102.589202235842, 3501.5348793905832, 3864.683671555957, 869.2369901224364, -3884.53202063227, -0.29, -0.214, 0.906, 192.0, 0.0, 0.0, 0.0, 0.0, 0.0, 0.0, 0.0, 0.0, 0.0, 1.700579050904526E9, 0.0, 2023-11-21 10:04:10.904
41.0, -1018.0325529614155, -999.949991697072, -2952.82190475725, 1109.495891272532, 3506.8769463154017, 3871.7691745482894, 876.925990215062, -3877.9606077624094, -0.29, -0.214, 0.906, 192.0, 0.0, 0.0, 0.0, 0.0, 0.0, 0.0, 0.0, 0.0, 0.0, 1.700579050908546E9, 0.0, 2023-11-21 10:04:10.908
42.0, -1020.401837873678, -1013.3610383702563, -2966.1658961970684, 1105.494929015032, 3504.3288474474966, 3868.617578580091, 876.1883826480368, -3883.3697299205937, -0.29, -0.214, 0.906, 192.0, 0.0, 0.0, 0.0, 0.0, 0.0, 0.0, 0.0, 0.0, 0.0, 1.700579050912542E9, 0.0, 2023-11-21 10:04:10.912
43.0, -1007.951916212072, -986.5612967683431, -2949.4467913444987, 1110.434664539655, 3502.8759840579014, 3867.4105843795046, 875.9201617145732, -3883.5038403873255, -0.29, -0.214, 0.906, 192.0, 0.0, 0.0, 0.0, 0.0, 0.0, 0.0, 0.0, 0.0, 0.0, 1.700579050916544E9, 0.0, 2023-11-21 10:04:10.916
44.0, -1008.8683377347396, -985.6448752456755, -2947.8374657437166, 1106.9254406601717, 3501.6913416017705, 3864.1919331779404, 876.5460105593218, -3881.7380525753565, -0.29, -0.214, 0.906, 192.0, 0.0, 0.0, 0.0, 0.0, 0.0, 0.0, 0.0, 0.0, 0.0, 1.700579050921542E9, 0.0, 2023-11-21 10:04:10.921
45.0, -1051.3813556887337, -1037.947957271094, -2968.3563671536886, 1097.8729841557722, 3493.488251386673, 3859.2745493977727, 869.1028796557046, -3890.9246195464875, -0.29, -0.214, 0.906, 192.0, 0.0, 0.0, 0.0, 0.0, 0.0, 0.0, 0.0, 0.0, 0.0, 1.700579050925568E9, 0.0, 2023-11-21 10:04:10.925
46.0, -1067.2063907630911, -1062.8478005943061, -2973.720785822962, 1099.661123712197, 3494.9858182651783, 3860.5709505761806, 863.8725714531627, -3897.496032416348, -0.29, -0.214, 0.906, 192.0, 0.0, 0.0, 0.0, 0.0, 0.0, 0.0, 0.0, 0.0, 0.0, 1.700579050928567E9, 0.0, 2023-11-21 10:04:10.928
47.0, -1049.6826231101302, -1033.6340705912198, -2966.1211927081577, 1102.8127196803953, 3500.417292167818, 3862.71671804389, 863.6267022641542, -3892.645703869546, -0.29, -0.214, 0.906, 192.0, 0.0, 0.0, 0.0, 0.0, 0.0, 0.0, 0.0, 0.0, 0.0, 1.700579050932578E9, 0.0, 2023-11-21 10:04:10.932
48.0, -1006.8566807337619, -1001.2463928754798, -2962.6790240620408, 1100.7116557015963, 3500.1937747232646, 3862.5602558327028, 863.5149435418778, -3887.0577677557194, -0.3, -0.224, 0.91, 192.0, 246.0, 160.0, 249.0, 0.0, 28.0, 112.0, 0.0, 0.0, 0.0, 1.700579050936594E9, 0.0, 2023-11-21 10:04:10.936
49.0, -1004.2191748880357, -999.4359015746, -2947.278672132334, 1111.4181412956884, 3506.765187593125, 3871.4115466370044, 872.0309581793498, -3874.227866438373, -0.3, -0.224, 0.91, 192.0, 0.0, 0.0, 0.0, 0.0, 0.0, 0.0, 0.0, 0.0, 0.0, 1.700579050940592E9, 0.0, 2023-11-21 10:04:10.940
50.0, -1029.7448670559963, -1001.9392969535944, -2931.3418783357, 1119.688286744152, 3507.5922021379715, 3872.5738373486806, 871.3604058456905, -3882.274494442284, -0.3, -0.224, 0.91, 192.0, 0.0, 0.0, 0.0, 0.0, 0.0, 0.0, 0.0, 0.0, 0.0, 1.700579050944614E9, 0.0, 2023-11-21 10:04:10.944
51.0, -1022.9052332526724, -991.0092939149492, -2936.7062970049737, 1109.630001739264, 3496.997475266156, 3865.4883343563483, 863.9619784309839, -3887.258933455817, -0.3, -0.224, 0.91, 192.0, 0.0, 0.0, 0.0, 0.0, 0.0, 0.0, 0.0, 0.0, 0.0, 1.700579050950626E9, 0.0, 2023-11-21 10:04:10.950
52.0, -1018.9936779729936, -1023.9110617531612, -2971.4185561440654, 1098.9011644007164, 3497.958600277734, 3868.952854746921, 875.2049058920034, -3877.8935525290435, -0.3, -0.224, 0.91, 192.0, 0.0, 0.0, 0.0, 0.0, 0.0, 0.0, 0.0, 0.0, 0.0, 1.700579050954641E9, 0.0, 2023-11-21 10:04:10.954
53.0, -1026.883843765717, -1039.1325997272254, -2974.950131768004, 1102.3880365357443, 3501.356065434941, 3869.042261724742, 876.7471762594196, -3878.1617734625074, -0.3, -0.224, 0.91, 192.0, 0.0, 0.0, 0.0, 0.0, 0.0, 0.0, 0.0, 0.0, 0.0, 1.700579050958639E9, 0.0, 2023-11-21 10:04:10.958
54.0, -1020.6030035737758, -1012.2658028919462, -2954.408878613577, 1108.333600560856, 3503.211260224731, 3869.0646134691974, 874.5120018138888, -3877.6029798511245, -0.3, -0.224, 0.91, 192.0, 0.0, 0.0, 0.0, 0.0, 0.0, 0.0, 0.0, 0.0, 0.0, 1.700579050961652E9, 0.0, 2023-11-21 10:04:10.961
55.0, -1015.7973785158848, -1007.6166400452424, -2954.63239605813, 1106.232536582057, 3501.9148590463233, 3870.562180347703, 878.7141297714866, -3867.1200117015856, -0.3, -0.224, 0.91, 192.0, 0.0, 0.0, 0.0, 0.0, 0.0, 0.0, 0.0, 0.0, 0.0, 1.700579050964656E9, 0.0, 2023-11-21 10:04:10.964
56.0, -987.3436078242789, -979.3863867981896, -2950.3855646116217, 1105.8302051818616, 3503.568888136016, 3869.578703591669, 875.3613681031904, -3869.8245727806775, -0.3, -0.224, 0.91, 192.0, 0.0, 0.0, 0.0, 0.0, 0.0, 0.0, 0.0, 0.0, 0.0, 1.700579050968674E9, 0.0, 2023-11-21 10:04:10.968
57.0, -979.9898838984828, -967.696424448064, -2946.026974442837, 1109.6076499948085, 3505.222917225709, 3867.8352675241554, 871.4051093346011, -3874.2502181828286, -0.3, -0.224, 0.91, 192.0, 0.0, 0.0, 0.0, 0.0, 0.0, 0.0, 0.0, 0.0, 0.0, 1.700579050972659E9, 0.0, 2023-11-21 10:04:10.972
58.0, -1044.787591074418, -1041.0101462614712, -2957.0240327148476, 1114.525033774976, 3509.402693438851, 3874.5407908607476, 877.7977082488189, -3874.0490524827305, -0.302, -0.232, 0.904, 192.0, 246.0, 144.0, 248.0, 192.0, 28.0, 64.0, 0.0, 0.0, 0.0, 1.700579050976675E9, 0.0, 2023-11-21 10:04:10.976
59.0, -1051.5825213888313, -1061.0373092934262, -2967.5517043532973, 1106.0537226264146, 3510.833205083991, 3877.9606077624094, 885.151432174615, -3867.365880890594, -0.302, -0.232, 0.904, 192.0, 0.0, 0.0, 0.0, 0.0, 0.0, 0.0, 0.0, 0.0, 0.0, 1.700579050981707E9, 0.0, 2023-11-21 10:04:10.981
60.0, -1035.6457275921975, -1036.6068526037757, -2966.0317857303367, 1097.716521944585, 3501.6242863684042, 3866.9635494903982, 871.8744959681626, -3878.38529090706, -0.302, -0.232, 0.904, 192.0, 0.0, 0.0, 0.0, 0.0, 0.0, 0.0, 0.0, 0.0, 0.0, 1.700579050984673E9, 0.0, 2023-11-21 10:04:10.984
61.0, -1035.9139485256612, -1025.3192216538455, -2965.562399096775, 1092.1285858307583, 3494.672893842804, 3859.6321773090576, 865.8171732207744, -3884.9567037769207, -0.302, -0.232, 0.904, 192.0, 0.0, 0.0, 0.0, 0.0, 0.0, 0.0, 0.0, 0.0, 0.0, 1.700579050988676E9, 0.0, 2023-11-21 10:04:10.988
62.0, -1022.949936741583, -1014.3892186152004, -2964.757736296384, 1095.5260509879652, 3500.0373125120777, 3862.2249796658734, 871.4051093346011, -3880.5757618636803, -0.302, -0.232, 0.904, 192.0, 0.0, 0.0, 0.0, 0.0, 0.0, 0.0, 0.0, 0.0, 0.0, 1.70057905099269E9, 0.0, 2023-11-21 10:04:10.992
63.0, -1004.822671988329, -989.4893752919884, -2947.7480587658956, 1111.5746035068755, 3510.0285422836, 3867.2094186794066, 872.1650686460816, -3881.715700830901, -0.302, -0.232, 0.904, 192.0, 0.0, 0.0, 0.0, 0.0, 0.0, 0.0, 0.0, 0.0, 0.0, 1.700579050998716E9, 0.0, 2023-11-21 10:04:10.998
64.0, -1005.8285004888178, -990.6069625147537, -2941.735439507418, 1116.3578768203113, 3510.8779085729016, 3866.4718111123816, 874.8025744918078, -3875.457212383415, -0.302, -0.232, 0.904, 192.0, 0.0, 0.0, 0.0, 0.0, 0.0, 0.0, 0.0, 0.0, 0.0, 1.700579051001739E9, 0.0, 2023-11-21 10:04:11.001
65.0, -1017.7196285390412, -1020.0665617068485, -2958.052212959792, 1104.3773417922666, 3503.8818125583903, 3864.5942645781356, 879.183516405048, -3864.2366366668507, -0.302, -0.232, 0.904, 192.0, 0.0, 0.0, 0.0, 0.0, 0.0, 0.0, 0.0, 0.0, 0.0, 1.700579051005776E9, 0.0, 2023-11-21 10:04:11.005
66.0, -1021.0723902073372, -1018.0996081947814, -2951.592558812208, 1110.2334988395571, 3513.5601179075384, 3875.144287961041, 885.084376941249, -3858.939273230943, -0.302, -0.232, 0.904, 192.0, 0.0, 0.0, 0.0, 0.0, 0.0, 0.0, 0.0, 0.0, 0.0, 1.700579051008746E9, 0.0, 2023-11-21 10:04:11.008
67.0, -1006.2978871223793, -984.9743229120163, -2939.634375528619, 1110.0546848839147, 3507.6145538824267, 3870.1151454585965, 877.7530047599083, -3864.4825058558595, -0.302, -0.232, 0.904, 192.0, 0.0, 0.0, 0.0, 0.0, 0.0, 0.0, 0.0, 0.0, 0.0, 1.700579051011731E9, 0.0, 2023-11-21 10:04:11.011
68.0, -1015.1715296711362, -999.4582533190553, -2939.9696516954486, 1110.300554072923, 3503.926516047301, 3866.1588866900074, 873.9979116914168, -3867.611750079602, -0.304, -0.23600000000000002, 0.906, 192.0, 246.0, 128.0, 248.0, 160.0, 28.0, 80.0, 0.0, 0.0, 0.0, 1.700579051016743E9, 0.0, 2023-11-21 10:04:11.016
69.0, -1039.9596142720718, -1035.4892653810102, -2961.092050205714, 1101.5610219908979, 3499.0761875004996, 3861.3756133765714, 869.3263971002576, -3877.357110662116, -0.304, -0.23600000000000002, 0.906, 192.0, 0.0, 0.0, 0.0, 0.0, 0.0, 0.0, 0.0, 0.0, 0.0, 1.700579051020758E9, 0.0, 2023-11-21 10:04:11.020
70.0, -1027.9567274995718, -1011.6846575361083, -2954.0736024467474, 1099.9740481345711, 3495.544611876561, 3859.9674534758874, 870.2651703673805, -3873.758479804812, -0.304, -0.23600000000000002, 0.906, 192.0, 0.0, 0.0, 0.0, 0.0, 0.0, 0.0, 0.0, 0.0, 0.0, 1.700579051024762E9, 0.0, 2023-11-21 10:04:11.024
71.0, -1011.5728988138318, -993.2444683604799, -2944.0376691863144, 1105.8749086707721, 3501.8031003240467, 3867.2094186794066, 875.1378506586374, -3865.8683140120884, -0.304, -0.23600000000000002, 0.906, 192.0, 0.0, 0.0, 0.0, 0.0, 0.0, 0.0, 0.0, 0.0, 0.0, 1.700579051028776E9, 0.0, 2023-11-21 10:04:11.028
72.0, -1012.0646371918485, -1008.1307301677144, -2960.399146127599, 1098.9011644007164, 3496.8186613105136, 3866.4941628568367, 876.3895483481347, -3862.0908691991413, -0.304, -0.23600000000000002, 0.906, 192.0, 0.0, 0.0, 0.0, 0.0, 0.0, 0.0, 0.0, 0.0, 0.0, 1.700579051032772E9, 0.0, 2023-11-21 10:04:11.032
73.0, -1014.6574395486641, -1022.3464396412897, -2965.2271229299454, 1097.1130248442919, 3499.634981111882, 3867.5446948462363, 877.5294873153553, -3864.9295407449654, -0.304, -0.23600000000000002, 0.906, 192.0, 0.0, 0.0, 0.0, 0.0, 0.0, 0.0, 0.0, 0.0, 0.0, 1.700579051036786E9, 0.0, 2023-11-21 10:04:11.036
74.0, -1019.2618989064574, -1027.085009465815, -2956.532294336831, 1105.2490598260235, 3508.2404027271755, 3875.010177494309, 881.1281181726597, -3863.6331395665575, -0.304, -0.23600000000000002, 0.906, 192.0, 0.0, 0.0, 0.0, 0.0, 0.0, 0.0, 0.0, 0.0, 0.0, 1.700579051039864E9, 0.0, 2023-11-21 10:04:11.039
75.0, -996.2396021174911, -1009.2259656460245, -2956.0405559588144, 1104.1538243477137, 3505.2899724590748, 3872.6408925820465, 878.0659291822826, -3863.879008755566, -0.304, -0.23600000000000002, 0.906, 192.0, 0.0, 0.0, 0.0, 0.0, 0.0, 0.0, 0.0, 0.0, 0.0, 1.700579051044794E9, 0.0, 2023-11-21 10:04:11.044
76.0, -998.7429974964855, -989.3776165697118, -2952.978366968437, 1101.8962981577276, 3499.7914433230694, 3864.1919331779404, 865.2583796093917, -3872.6855960709568, -0.304, -0.23600000000000002, 0.906, 192.0, 0.0, 0.0, 0.0, 0.0, 0.0, 0.0, 0.0, 0.0, 0.0, 1.700579051048806E9, 0.0, 2023-11-21 10:04:11.048
77.0, -1020.5135965959546, -1000.5534887973654, -2949.893826233605, 1105.3608185483001, 3504.865289314424, 3868.2152471798954, 865.7054144984978, -3875.3007501722277, -0.304, -0.23600000000000002, 0.906, 192.0, 0.0, 0.0, 0.0, 0.0, 0.0, 0.0, 0.0, 0.0, 0.0, 1.700579051052829E9, 0.0, 2023-11-21 10:04:11.052
78.0, -1034.5728438583426, -1040.853684050284, -2963.282521162334, 1098.8117574228952, 3506.6757806153037, 3875.2113431944067, 872.7685657463749, -3869.891628014044, -0.298, -0.234, 0.908, 192.0, 246.0, 176.0, 248.0, 176.0, 28.0, 96.0, 0.0, 0.0, 0.0, 1.700579051056828E9, 0.0, 2023-11-21 10:04:11.056
79.0, -1035.4892653810102, -1033.6564223356752, -2959.2815589048337, 1094.8554986543058, 3502.6524666133487, 3869.8022210362224, 866.8230017212632, -3869.8022210362224, -0.298, -0.234, 0.908, 192.0, 0.0, 0.0, 0.0, 0.0, 0.0, 0.0, 0.0, 0.0, 0.0, 1.700579051061876E9, 0.0, 2023-11-21 10:04:11.061
80.0, -1048.8332568208286, -1033.4776083800327, -2963.1037072066915, 1090.4075015076996, 3496.371626421407, 3860.794468020734, 857.0776411387493, -3885.0237590102865, -0.298, -0.234, 0.908, 192.0, 0.0, 0.0, 0.0, 0.0, 0.0, 0.0, 0.0, 0.0, 0.0, 1.70057905106481E9, 0.0, 2023-11-21 10:04:11.064
81.0, -1015.3279918823233, -1006.7672737559407, -2956.733460036929, 1096.1295480882584, 3500.0373125120777, 3865.331872145161, 863.1349638861375, -3881.6039421086243, -0.298, -0.234, 0.908, 192.0, 0.0, 0.0, 0.0, 0.0, 0.0, 0.0, 0.0, 0.0, 0.0, 1.700579051067918E9, 0.0, 2023-11-21 10:04:11.067
82.0, -1007.6389917896977, -1002.0510556758709, -2952.1290006791355, 1098.0070946225042, 3500.260829956631, 3867.8129157797002, 869.8851907116402, -3875.524267616781, -0.298, -0.234, 0.908, 192.0, 0.0, 0.0, 0.0, 0.0, 0.0, 0.0, 0.0, 0.0, 0.0, 1.700579051072871E9, 0.0, 2023-11-21 10:04:11.072
83.0, -1025.5427390983987, -1017.0714279498372, -2953.5148088353644, 1099.817585923384, 3501.154899734843, 3869.891628014044, 871.8744959681626, -3870.6962908144346, -0.298, -0.234, 0.908, 192.0, 0.0, 0.0, 0.0, 0.0, 0.0, 0.0, 0.0, 0.0, 0.0, 1.700579051076869E9, 0.0, 2023-11-21 10:04:11.076
84.0, -1022.2346809190132, -1008.53306156791, -2952.218407656957, 1098.0517981114147, 3497.5786206219937, 3861.174447676474, 866.443022065523, -3877.737090317856, -0.298, -0.234, 0.908, 192.0, 0.0, 0.0, 0.0, 0.0, 0.0, 0.0, 0.0, 0.0, 0.0, 1.700579051080878E9, 0.0, 2023-11-21 10:04:11.080
85.0, -1022.3911431302004, -1024.0898757088037, -2957.113439692669, 1106.2548883265124, 3511.5261091621055, 3872.238561181851, 873.796745991319, -3875.680729827968, -0.298, -0.234, 0.908, 192.0, 0.0, 0.0, 0.0, 0.0, 0.0, 0.0, 0.0, 0.0, 0.0, 1.700579051084892E9, 0.0, 2023-11-21 10:04:11.084
86.0, -1032.0247449904377, -1025.0286489759267, -2958.2757304043453, 1102.4550917691101, 3505.245268970164, 3866.4047558790157, 870.2651703673805, -3875.837192039155, -0.298, -0.234, 0.908, 192.0, 0.0, 0.0, 0.0, 0.0, 0.0, 0.0, 0.0, 0.0, 0.0, 1.700579051088892E9, 0.0, 2023-11-21 10:04:11.088
87.0, -1018.6584018061641, -1016.0432477048931, -2957.3593088816774, 1101.270449312979, 3503.1442049913653, 3868.662282069002, 876.3895483481347, -3864.5942645781356, -0.298, -0.234, 0.908, 192.0, 0.0, 0.0, 0.0, 0.0, 0.0, 0.0, 0.0, 0.0, 0.0, 1.700579051092902E9, 0.0, 2023-11-21 10:04:11.092
88.0, -1011.4611400915552, -997.3124858513459, -2955.2582449028787, 1102.2315743245572, 3501.981914279689, 3865.8906657565435, 868.0523476663051, -3875.8148402947, -0.3, -0.23800000000000002, 0.906, 192.0, 246.0, 160.0, 248.0, 144.0, 28.0, 80.0, 0.0, 0.0, 0.0, 1.700579051096919E9, 0.0, 2023-11-21 10:04:11.096
89.0, -1033.276442679935, -1010.7458842689854, -2958.342785637711, 1104.399693536722, 3506.0275800260997, 3872.3056164152167, 871.0698331677715, -3877.5806281066693, -0.3, -0.23800000000000002, 0.906, 192.0, 0.0, 0.0, 0.0, 0.0, 0.0, 0.0, 0.0, 0.0, 0.0, 1.700579051100913E9, 0.0, 2023-11-21 10:04:11.100
90.0, -1032.4717798795439, -1029.655460078175, -2962.5002101063983, 1103.7067894586075, 3509.0003620386556, 3877.0218344952864, 875.3837198476458, -3874.160811205007, -0.3, -0.23800000000000002, 0.906, 192.0, 0.0, 0.0, 0.0, 0.0, 0.0, 0.0, 0.0, 0.0, 0.0, 1.70057905110395E9, 0.0, 2023-11-21 10:04:11.103
91.0, -1040.6078148612755, -1035.3551549142785, -2964.9365502520263, 1099.7281789455628, 3502.2054317242423, 3872.2832646707616, 866.375966832157, -3886.5660293777028, -0.3, -0.23800000000000002, 0.906, 192.0, 0.0, 0.0, 0.0, 0.0, 0.0, 0.0, 0.0, 0.0, 0.0, 1.700579051107951E9, 0.0, 2023-11-21 10:04:11.107
92.0, -1033.5223118689432, -1024.5145588534544, -2962.321396150756, 1098.4764812560657, 3496.639847354871, 3867.8352675241554, 861.6150452631766, -3889.0247212677864, -0.3, -0.23800000000000002, 0.906, 192.0, 0.0, 0.0, 0.0, 0.0, 0.0, 0.0, 0.0, 0.0, 0.0, 1.700579051111948E9, 0.0, 2023-11-21 10:04:11.111
93.0, -996.6866370065973, -976.9053431636505, -2942.450695329988, 1109.428836039166, 3503.479481158195, 3867.9917297353427, 861.2350656074365, -3888.756500334323, -0.3, -0.23800000000000002, 0.906, 192.0, 0.0, 0.0, 0.0, 0.0, 0.0, 0.0, 0.0, 0.0, 0.0, 1.700579051116998E9, 0.0, 2023-11-21 10:04:11.116
94.0, -1023.5087303529657, -989.8693549477285, -2946.4516575874877, 1107.7748069494733, 3502.4960044021614, 3860.7274127873675, 855.2671498378694, -3895.707892859923, -0.3, -0.23800000000000002, 0.906, 192.0, 0.0, 0.0, 0.0, 0.0, 0.0, 0.0, 0.0, 0.0, 0.0, 1.700579051120915E9, 0.0, 2023-11-21 10:04:11.120
95.0, -1048.565035887365, -1038.3279369268344, -2975.084242234736, 1092.1956410641244, 3497.4892136441727, 3858.939273230943, 856.5859027607326, -3899.172413250496, -0.3, -0.23800000000000002, 0.906, 192.0, 0.0, 0.0, 0.0, 0.0, 0.0, 0.0, 0.0, 0.0, 0.0, 1.700579051124983E9, 0.0, 2023-11-21 10:04:11.124
96.0, -1012.8022447588736, -1014.5233290819323, -2969.4516026319984, 1100.622248723775, 3513.7165801187257, 3876.0607094837083, 875.0484436808161, -3881.4027764085267, -0.3, -0.23800000000000002, 0.906, 192.0, 0.0, 0.0, 0.0, 0.0, 0.0, 0.0, 0.0, 0.0, 0.0, 1.700579051128991E9, 0.0, 2023-11-21 10:04:11.128
97.0, -1024.179282686625, -1007.5942883007871, -2947.144561665602, 1112.0216383959817, 3519.7068476327477, 3878.2064769514177, 873.6849872690425, -3886.431918910971, -0.3, -0.23800000000000002, 0.906, 192.0, 0.0, 0.0, 0.0, 0.0, 0.0, 0.0, 0.0, 0.0, 0.0, 1.700579051133012E9, 0.0, 2023-11-21 10:04:11.133
98.0, -1055.5387801574207, -1035.4222101476444, -2954.0512507022922, 1107.663048227197, 3513.5377661630832, 3874.876067027577, 869.4381558225341, -3894.232677725873, -0.304, -0.23600000000000002, 0.906, 192.0, 246.0, 128.0, 248.0, 160.0, 28.0, 80.0, 0.0, 0.0, 0.0, 1.70057905113606E9, 0.0, 2023-11-21 10:04:11.136
99.0, -1031.2200821900467, -1022.8605297637617, -2962.1872856840237, 1099.4599580120992, 3506.9440015487676, 3872.2832646707616, 869.9745976894615, -3889.6282183680796, -0.304, -0.23600000000000002, 0.906, 192.0, 0.0, 0.0, 0.0, 0.0, 0.0, 0.0, 0.0, 0.0, 0.0, 1.700579051139997E9, 0.0, 2023-11-21 10:04:11.139
100.0, -1030.5718816008427, -1005.336762110801, -2959.6391868161186, 1094.4755189985656, 3499.187946222776, 3862.5155523437925, 862.2855975968358, -3897.3842736940715, -0.304, -0.23600000000000002, 0.906, 192.0, 0.0, 0.0, 0.0, 0.0, 0.0, 0.0, 0.0, 0.0, 0.0, 1.700579051144028E9, 0.0, 2023-11-21 10:04:11.144
101.0, -1035.3551549142785, -1016.1326546827144, -2973.3631579116773, 1087.7699956619736, 3492.2589054416308, 3855.295938884728, 857.4799725389448, -3906.8837650875766, -0.304, -0.23600000000000002, 0.906, 192.0, 0.0, 0.0, 0.0, 0.0, 0.0, 0.0, 0.0, 0.0, 0.0, 1.700579051149014E9, 0.0, 2023-11-21 10:04:11.149
102.0, -1025.430980376122, -1037.0538874928818, -2976.4924021354204, 1095.3919405212332, 3507.3016294600525, 3868.4164128799935, 870.6227982786654, -3892.1539654915296, -0.304, -0.23600000000000002, 0.906, 192.0, 0.0, 0.0, 0.0, 0.0, 0.0, 0.0, 0.0, 0.0, 0.0, 1.700579051153022E9, 0.0, 2023-11-21 10:04:11.153
103.0, -1014.4786255930217, -1015.1491779266809, -2967.886980520127, 1098.8117574228952, 3511.369646950918, 3870.9868634923537, 872.6791587685536, -3881.5145351308033, -0.304, -0.23600000000000002, 0.906, 192.0, 0.0, 0.0, 0.0, 0.0, 0.0, 0.0, 0.0, 0.0, 0.0, 1.70057905116405E9, 0.0, 2023-11-21 10:04:11.164
104.0, -1012.7798930144183, -998.9441631965832, -2957.471067603954, 1102.8127196803953, 3511.5931643954714, 3870.875104770077, 871.0027779344056, -3882.7662328203005, -0.304, -0.23600000000000002, 0.906, 192.0, 0.0, 0.0, 0.0, 0.0, 0.0, 0.0, 0.0, 0.0, 0.0, 1.700579051167062E9, 0.0, 2023-11-21 10:04:11.167
105.0, -1017.2502419054797, -1002.3416283537899, -2953.0901256907136, 1103.5056237585097, 3506.0052282816446, 3866.1588866900074, 866.6441877656207, -3886.9907125223535, -0.304, -0.23600000000000002, 0.906, 192.0, 0.0, 0.0, 0.0, 0.0, 0.0, 0.0, 0.0, 0.0, 0.0, 1.700579051170106E9, 0.0, 2023-11-21 10:04:11.170
106.0, -1022.3240878968344, -1007.1919569005915, -2961.0026432278923, 1096.9342108886494, 3500.8866788013793, 3861.0179854652865, 860.1621818735817, -3891.6398753690573, -0.304, -0.23600000000000002, 0.906, 192.0, 0.0, 0.0, 0.0, 0.0, 0.0, 0.0, 0.0, 0.0, 0.0, 1.700579051174093E9, 0.0, 2023-11-21 10:04:11.174
107.0, -1015.9985442159825, -993.4903375494883, -2954.185361169024, 1106.6125162377973, 3513.046027785066, 3869.0646134691974, 860.7209754849644, -3896.1549277490294, -0.304, -0.23600000000000002, 0.906, 192.0, 0.0, 0.0, 0.0, 0.0, 0.0, 0.0, 0.0, 0.0, 0.0, 1.700579051177069E9, 0.0, 2023-11-21 10:04:11.177
108.0, -1025.9003670096836, -1002.6545527761642, -2957.2922536483115, 1103.1479958472248, 3511.794330095569, 3871.3444914036386, 864.8113447202855, -3887.236581711362, -0.302, -0.23800000000000002, 0.91, 192.0, 246.0, 144.0, 248.0, 144.0, 28.0, 112.0, 0.0, 0.0, 0.0, 1.700579051180087E9, 0.0, 2023-11-21 10:04:11.180
109.0, -1041.725402084041, -1036.5845008593203, -2972.6479020891074, 1093.3132282868896, 3507.83807132698, 3872.5738373486806, 873.5732285467659, -3876.3736339060824, -0.302, -0.23800000000000002, 0.91, 192.0, 0.0, 0.0, 0.0, 0.0, 0.0, 0.0, 0.0, 0.0, 0.0, 1.700579051184088E9, 0.0, 2023-11-21 10:04:11.184
110.0, -1025.565090842854, -1017.2725936499351, -2971.9549980109928, 1092.5532689754093, 3501.378417179396, 3868.036433224253, 871.1145366566822, -3875.9713025058873, -0.302, -0.23800000000000002, 0.91, 192.0, 0.0, 0.0, 0.0, 0.0, 0.0, 0.0, 0.0, 0.0, 0.0, 1.700579051187095E9, 0.0, 2023-11-21 10:04:11.187
111.0, -1025.7662565429516, -1018.5242913394322, -2971.530314866342, 1090.3627980187891, 3497.064530499522, 3862.0014622213203, 863.537295286333, -3882.319197931194, -0.302, -0.23800000000000002, 0.91, 192.0, 0.0, 0.0, 0.0, 0.0, 0.0, 0.0, 0.0, 0.0, 0.0, 1.700579051191141E9, 0.0, 2023-11-21 10:04:11.191
112.0, -1053.5718266453537, -1042.7088788400745, -2969.988044498926, 1095.1013678433142, 3500.6855131012817, 3862.493200599337, 861.0338999073387, -3887.48245090037, -0.302, -0.23800000000000002, 0.91, 192.0, 0.0, 0.0, 0.0, 0.0, 0.0, 0.0, 0.0, 0.0, 0.0, 1.700579051194127E9, 0.0, 2023-11-21 10:04:11.194
113.0, -1033.6564223356752, -1026.7497332989851, -2958.9462827380044, 1107.975972649571, 3515.057684786044, 3874.6972530719345, 876.7695280038748, -3871.9256367594767, -0.302, -0.23800000000000002, 0.91, 192.0, 0.0, 0.0, 0.0, 0.0, 0.0, 0.0, 0.0, 0.0, 0.0, 1.70057905119812E9, 0.0, 2023-11-21 10:04:11.198
114.0, -1018.3454773837898, -1008.7118755235524, -2957.6498815595965, 1105.271411570479, 3514.5659464080272, 3869.0869652136525, 869.3263971002576, -3879.458174640915, -0.302, -0.23800000000000002, 0.91, 192.0, 0.0, 0.0, 0.0, 0.0, 0.0, 0.0, 0.0, 0.0, 0.0, 1.70057905120113E9, 0.0, 2023-11-21 10:04:11.201
115.0, -1027.375582143734, -1002.8557184762619, -2953.604215813186, 1100.7787109349622, 3508.709789360737, 3868.595226835636, 868.8570104666961, -3871.500953614826, -0.302, -0.23800000000000002, 0.91, 192.0, 0.0, 0.0, 0.0, 0.0, 0.0, 0.0, 0.0, 0.0, 0.0, 1.700579051205139E9, 0.0, 2023-11-21 10:04:11.205
116.0, -1032.91881476865, -1005.8061487443625, -2952.888959990616, 1098.4764812560657, 3508.732141105192, 3872.104450715119, 872.5674000462772, -3867.1647151904963, -0.302, -0.23800000000000002, 0.91, 192.0, 0.0, 0.0, 0.0, 0.0, 0.0, 0.0, 0.0, 0.0, 0.0, 1.700579051209133E9, 0.0, 2023-11-21 10:04:11.209
117.0, -1020.2900791514015, -997.759520740452, -2957.5828263262306, 1097.8953359002276, 3510.185004494787, 3873.177334448974, 874.60140879171, -3867.9023227575212, -0.302, -0.23800000000000002, 0.91, 192.0, 0.0, 0.0, 0.0, 0.0, 0.0, 0.0, 0.0, 0.0, 0.0, 1.700579051212134E9, 0.0, 2023-11-21 10:04:11.212
118.0, -1033.6564223356752, -1012.6457825476865, -2965.249474674401, 1093.8273184093616, 3505.0441032700664, 3865.913017500999, 869.3040453558023, -3878.1841252069626, -0.302, -0.23800000000000002, 0.91, 192.0, 0.0, 0.0, 0.0, 0.0, 0.0, 0.0, 0.0, 0.0, 0.0, 1.700579051216151E9, 0.0, 2023-11-21 10:04:11.216
119.0, -1024.3133931533569, -1021.4076663741669, -2962.2096374284793, 1106.5454610044314, 3518.2986877320636, 3876.2171716948956, 880.7257867724642, -3867.656453568513, -0.294, -0.242, 0.908, 192.0, 246.0, 208.0, 248.0, 112.0, 28.0, 96.0, 0.0, 0.0, 0.0, 1.700579051220156E9, 0.0, 2023-11-21 10:04:11.220
120.0, -1023.4863786085104, -1006.1414249111921, -2950.0949919337027, 1113.0498186409259, 3521.025600555611, 3877.3794624065713, 879.4293855940564, -3869.4445931249375, -0.294, -0.242, 0.908, 192.0, 0.0, 0.0, 0.0, 0.0, 0.0, 0.0, 0.0, 0.0, 0.0, 1.700579051224156E9, 0.0, 2023-11-21 10:04:11.224
121.0, -1000.9781719420162, -974.1560785956477, -2937.0639249162587, 1113.1839291076576, 3518.186929009787, 3871.880933270566, 876.0319204368498, -3871.970340248387, -0.294, -0.242, 0.908, 192.0, 0.0, 0.0, 0.0, 0.0, 0.0, 0.0, 0.0, 0.0, 0.0, 1.700579051228184E9, 0.0, 2023-11-21 10:04:11.228
122.0, -1014.6797912931194, -1007.8625092342508, -2967.7752217978505, 1096.0401411104372, 3509.1344725053877, 3865.778907034267, 872.6791587685536, -3876.820668795189, -0.294, -0.242, 0.908, 192.0, 0.0, 0.0, 0.0, 0.0, 0.0, 0.0, 0.0, 0.0, 0.0, 1.70057905123221E9, 0.0, 2023-11-21 10:04:11.232
123.0, -1031.980041501527, -1034.528140369432, -2986.5953906292193, 1087.5688299618757, 3507.9051265603457, 3864.974244233876, 868.9464174445174, -3883.8614682986104, -0.294, -0.242, 0.908, 192.0, 0.0, 0.0, 0.0, 0.0, 0.0, 0.0, 0.0, 0.0, 0.0, 1.700579051237243E9, 0.0, 2023-11-21 10:04:11.237
124.0, -1054.6670621236638, -1039.601986360787, -2966.791745041817, 1103.0362371249482, 3521.472635444717, 3872.819706537689, 870.1534116451039, -3886.521325888792, -0.294, -0.242, 0.908, 192.0, 0.0, 0.0, 0.0, 0.0, 0.0, 0.0, 0.0, 0.0, 0.0, 1.700579051240216E9, 0.0, 2023-11-21 10:04:11.240
125.0, -1032.91881476865, -1024.626317575731, -2967.663463075574, 1098.6105917227974, 3518.611612154438, 3873.847886782633, 875.2719611253692, -3877.5359246177586, -0.294, -0.242, 0.908, 192.0, 0.0, 0.0, 0.0, 0.0, 0.0, 0.0, 0.0, 0.0, 0.0, 1.700579051244216E9, 0.0, 2023-11-21 10:04:11.244
126.0, -1023.4193233751445, -1014.9703639710384, -2976.1347742241355, 1084.7972136494177, 3504.798234081058, 3861.62148256558, 870.6451500231207, -3883.4367851539596, -0.294, -0.242, 0.908, 192.0, 0.0, 0.0, 0.0, 0.0, 0.0, 0.0, 0.0, 0.0, 0.0, 1.70057905124823E9, 0.0, 2023-11-21 10:04:11.248
127.0, -1015.5291575824211, -999.7488259969743, -2961.8296577727388, 1093.626152709264, 3505.9381730482787, 3861.107392443108, 868.8570104666961, -3887.3259886891833, -0.294, -0.242, 0.908, 192.0, 0.0, 0.0, 0.0, 0.0, 0.0, 0.0, 0.0, 0.0, 0.0, 1.700579051252229E9, 0.0, 2023-11-21 10:04:11.252
128.0, -1028.7837420444182, -1016.3114686383568, -2971.3067974217893, 1096.3083620439008, 3511.079074272999, 3868.259950668806, 871.7850889903414, -3889.0917765011523, -0.294, -0.242, 0.908, 192.0, 0.0, 0.0, 0.0, 0.0, 0.0, 0.0, 0.0, 0.0, 0.0, 1.700579051256257E9, 0.0, 2023-11-21 10:04:11.256
129.0, -1050.3531754437895, -1037.947957271094, -2988.137660996635, 1088.2840857844456, 3509.022713783111, 3865.041299467242, 867.3370918437353, -3897.585439394169, -0.298, -0.23800000000000002, 0.906, 192.0, 246.0, 176.0, 248.0, 144.0, 28.0, 80.0, 0.0, 0.0, 0.0, 1.70057905126025E9, 0.0, 2023-11-21 10:04:11.260
130.0, -1034.5504921138875, -1029.1190182112477, -2976.8500300467053, 1096.755396933007, 3519.12570227691, 3875.524267616781, 876.9483419595173, -3884.8002415657334, -0.298, -0.23800000000000002, 0.906, 192.0, 0.0, 0.0, 0.0, 0.0, 0.0, 0.0, 0.0, 0.0, 0.0, 1.700579051265287E9, 0.0, 2023-11-21 10:04:11.265
131.0, -1023.3969716306892, -1022.2346809190132, -2962.366099639666, 1101.270449312979, 3517.7845976095914, 3875.144287961041, 875.9201617145732, -3885.806070066222, -0.298, -0.23800000000000002, 0.906, 192.0, 0.0, 0.0, 0.0, 0.0, 0.0, 0.0, 0.0, 0.0, 0.0, 1.700579051268314E9, 0.0, 2023-11-21 10:04:11.268
132.0, -1041.9042160396834, -1016.6690965496417, -2960.2426839164123, 1097.8729841557722, 3513.381303951896, 3871.1880291924513, 873.4391180800341, -3890.00819802382, -0.298, -0.23800000000000002, 0.906, 192.0, 0.0, 0.0, 0.0, 0.0, 0.0, 0.0, 0.0, 0.0, 0.0, 1.700579051272293E9, 0.0, 2023-11-21 10:04:11.272
133.0, -1037.5456258708984, -1018.5019395949769, -2974.279579434345, 1089.334617773845, 3510.2520597281527, 3868.5058198578145, 873.0591384242939, -3884.174392720985, -0.298, -0.23800000000000002, 0.906, 192.0, 0.0, 0.0, 0.0, 0.0, 0.0, 0.0, 0.0, 0.0, 0.0, 1.700579051276295E9, 0.0, 2023-11-21 10:04:11.276
134.0, -1001.0899306642928, -992.886840449195, -2964.7800880408395, 1097.269487055479, 3516.7787691091025, 3873.177334448974, 875.473126825467, -3881.3133694307057, -0.298, -0.23800000000000002, 0.906, 192.0, 0.0, 0.0, 0.0, 0.0, 0.0, 0.0, 0.0, 0.0, 0.0, 1.70057905128035E9, 0.0, 2023-11-21 10:04:11.280
135.0, -1010.6564772911642, -1005.6273347887201, -2966.545875852809, 1100.9128214016941, 3517.672838887315, 3874.9207705164877, 875.9872169479391, -3875.8595437836107, -0.298, -0.23800000000000002, 0.906, 192.0, 0.0, 0.0, 0.0, 0.0, 0.0, 0.0, 0.0, 0.0, 0.0, 1.700579051284318E9, 0.0, 2023-11-21 10:04:11.284
136.0, -1041.9265677841388, -1030.5048263674769, -2975.598332357208, 1096.3307137883562, 3515.415312697329, 3877.044186239742, 877.8424117377295, -3880.419299652493, -0.298, -0.23800000000000002, 0.906, 192.0, 0.0, 0.0, 0.0, 0.0, 0.0, 0.0, 0.0, 0.0, 0.0, 1.700579051288262E9, 0.0, 2023-11-21 10:04:11.288
137.0, -1012.4446168475887, -993.4903375494883, -2959.080393204736, 1103.103292358314, 3516.0635132865327, 3877.334758917661, 874.4225948360676, -3881.648645597535, -0.298, -0.23800000000000002, 0.906, 192.0, 0.0, 0.0, 0.0, 0.0, 0.0, 0.0, 0.0, 0.0, 0.0, 1.700579051293322E9, 0.0, 2023-11-21 10:04:11.293
138.0, -1019.6865820511082, -992.7974334713738, -2959.5944833272083, 1099.4599580120992, 3509.6485626278595, 3870.495125114337, 869.1252314001598, -3883.1909159649513, -0.298, -0.23800000000000002, 0.906, 192.0, 0.0, 0.0, 0.0, 0.0, 0.0, 0.0, 0.0, 0.0, 0.0, 1.700579051296402E9, 0.0, 2023-11-21 10:04:11.296
139.0, -1040.1831317166248, -1027.4873408660103, -2970.3456724102107, 1096.1966033216243, 3505.4017311813514, 3868.4834681133593, 867.3147400992799, -3887.2142299669067, -0.304, -0.23600000000000002, 0.904, 192.0, 246.0, 128.0, 248.0, 160.0, 28.0, 64.0, 0.0, 0.0, 0.0, 1.70057905129942E9, 0.0, 2023-11-21 10:04:11.299
140.0, -1031.82357929034, -1016.8479105052842, -2965.4953438634093, 1103.7961964364288, 3512.733103362692, 3875.5913228501468, 875.2272576364586, -3881.5145351308033, -0.304, -0.23600000000000002, 0.904, 192.0, 0.0, 0.0, 0.0, 0.0, 0.0, 0.0, 0.0, 0.0, 0.0, 1.700579051305404E9, 0.0, 2023-11-21 10:04:11.305
141.0, -1044.653480607686, -1030.9965647454935, -2971.8655910331718, 1097.560059733398, 3514.2977254745633, 3876.8877240285547, 880.9716559614726, -3875.770136805789, -0.304, -0.23600000000000002, 0.904, 192.0, 0.0, 0.0, 0.0, 0.0, 0.0, 0.0, 0.0, 0.0, 0.0, 1.700579051308392E9, 0.0, 2023-11-21 10:04:11.308
142.0, -1035.9363002701164, -1021.564128585354, -2972.402032900099, 1091.1674608191802, 3507.547498649061, 3868.237598924351, 876.4342518370453, -3880.2181339523954, -0.304, -0.23600000000000002, 0.904, 192.0, 0.0, 0.0, 0.0, 0.0, 0.0, 0.0, 0.0, 0.0, 0.0, 1.700579051312399E9, 0.0, 2023-11-21 10:04:11.312
143.0, -1012.0422854473932, -992.7750817269185, -2960.175628683046, 1101.203394079613, 3513.336600462985, 3874.2725699272837, 878.4459088380229, -3878.452346140426, -0.304, -0.23600000000000002, 0.904, 192.0, 0.0, 0.0, 0.0, 0.0, 0.0, 0.0, 0.0, 0.0, 0.0, 1.700579051316396E9, 0.0, 2023-11-21 10:04:11.316
144.0, -1011.3046778803681, -998.34066609629, -2949.893826233605, 1113.8097779524062, 3528.088751803488, 3887.5048026448258, 886.7607577753971, -3869.0646134691974, -0.304, -0.23600000000000002, 0.904, 192.0, 0.0, 0.0, 0.0, 0.0, 0.0, 0.0, 0.0, 0.0, 0.0, 1.70057905132039E9, 0.0, 2023-11-21 10:04:11.320
145.0, -1036.6515560926862, -1008.1083784232592, -2957.8063437707838, 1104.1538243477137, 3520.3550482219516, 3880.687520585957, 879.3399786162352, -3880.7322240748676, -0.304, -0.23600000000000002, 0.904, 192.0, 0.0, 0.0, 0.0, 0.0, 0.0, 0.0, 0.0, 0.0, 0.0, 1.700579051323411E9, 0.0, 2023-11-21 10:04:11.323
146.0, -1041.948919528594, -1007.3484191117788, -2966.7470415529065, 1096.5095277439987, 3510.6096876394377, 3867.678805312968, 866.2195046209699, -3897.6301428830798, -0.304, -0.23600000000000002, 0.904, 192.0, 0.0, 0.0, 0.0, 0.0, 0.0, 0.0, 0.0, 0.0, 0.0, 1.700579051327402E9, 0.0, 2023-11-21 10:04:11.327
147.0, -998.3183143518346, -987.7235874800191, -2950.5867303117193, 1106.4337022821549, 3520.824434855513, 3876.328930417172, 878.6247227936653, -3880.776927563778, -0.304, -0.23600000000000002, 0.904, 192.0, 0.0, 0.0, 0.0, 0.0, 0.0, 0.0, 0.0, 0.0, 0.0, 1.700579051332359E9, 0.0, 2023-11-21 10:04:11.332
148.0, -1006.8343289893066, -993.4232823161224, -2947.2563203878785, 1108.7582837055068, 3523.8195686125246, 3878.5417531182475, 885.3525978747127, -3872.3726716485826, -0.304, -0.23600000000000002, 0.904, 192.0, 0.0, 0.0, 0.0, 0.0, 0.0, 0.0, 0.0, 0.0, 0.0, 1.700579051336419E9, 0.0, 2023-11-21 10:04:11.336
149.0, -1031.3318409123233, -1003.8168434878402, -2953.87243674665, 1102.365684791289, 3516.152920264354, 3867.1647151904963, 869.6840250115425, -3893.986808536865, -0.31, -0.23600000000000002, 0.9, 192.0, 246.0, 80.0, 248.0, 160.0, 28.0, 32.0, 0.0, 0.0, 0.0, 1.700579051340418E9, 0.0, 2023-11-21 10:04:11.340
150.0, -1048.3638701872671, -1011.6399540471976, -2960.533256594331, 1102.723312702574, 3517.896356331868, 3868.3493576466276, 871.5615715457883, -3890.9916747798534, -0.31, -0.23600000000000002, 0.9, 192.0, 0.0, 0.0, 0.0, 0.0, 0.0, 0.0, 0.0, 0.0, 0.0, 1.700579051344436E9, 0.0, 2023-11-21 10:04:11.344
151.0, -1064.4794779395436, -1063.0266145499486, -2998.799443101817, 1082.2044112926021, 3505.1111585034323, 3862.202627921418, 868.9687691889727, -3889.114128245608, -0.31, -0.23600000000000002, 0.9, 192.0, 0.0, 0.0, 0.0, 0.0, 0.0, 0.0, 0.0, 0.0, 0.0, 1.700579051348446E9, 0.0, 2023-11-21 10:04:11.348
152.0, -1044.9664050300605, -1046.4863236530214, -2989.1881929860347, 1087.367664261778, 3504.7535305921474, 3864.7954302782337, 873.9308564580508, -3885.9625322774095, -0.31, -0.23600000000000002, 0.9, 192.0, 0.0, 0.0, 0.0, 0.0, 0.0, 0.0, 0.0, 0.0, 0.0, 1.700579051351452E9, 0.0, 2023-11-21 10:04:11.351
153.0, -1041.6136433617644, -1024.179282686625, -2974.368986412166, 1092.463861997588, 3504.485309658684, 3863.2308081663623, 869.4605075669895, -3888.3541689341273, -0.31, -0.23600000000000002, 0.9, 192.0, 0.0, 0.0, 0.0, 0.0, 0.0, 0.0, 0.0, 0.0, 0.0, 1.700579051355472E9, 0.0, 2023-11-21 10:04:11.355
154.0, -1054.1306202567364, -1026.369753643245, -2978.1017277362025, 1094.3861120207443, 3509.827376583502, 3868.617578580091, 872.3662343461793, -3891.5281166467807, -0.31, -0.23600000000000002, 0.9, 192.0, 0.0, 0.0, 0.0, 0.0, 0.0, 0.0, 0.0, 0.0, 0.0, 1.700579051360486E9, 0.0, 2023-11-21 10:04:11.360
155.0, -1025.0286489759267, -1016.6243930607311, -2966.4341171305323, 1110.881699428761, 3527.2393855141863, 3882.632122353569, 883.6091618071988, -3881.29101768625, -0.31, -0.23600000000000002, 0.9, 192.0, 0.0, 0.0, 0.0, 0.0, 0.0, 0.0, 0.0, 0.0, 0.0, 1.70057905136448E9, 0.0, 2023-11-21 10:04:11.364
156.0, -1020.9382797406054, -1004.0850644213039, -2960.5109048498757, 1109.4735395280766, 3527.5076064476502, 3879.391119407549, 879.4517373385116, -3880.396947908038, -0.31, -0.23600000000000002, 0.9, 192.0, 0.0, 0.0, 0.0, 0.0, 0.0, 0.0, 0.0, 0.0, 0.0, 1.700579051368508E9, 0.0, 2023-11-21 10:04:11.368
157.0, -1027.375582143734, -1002.498090564977, -2965.4282886300434, 1101.5386702464427, 3520.1985860107648, 3875.747785061334, 883.3185891292798, -3866.270645412284, -0.31, -0.23600000000000002, 0.9, 192.0, 0.0, 0.0, 0.0, 0.0, 0.0, 0.0, 0.0, 0.0, 0.0, 1.700579051372504E9, 0.0, 2023-11-21 10:04:11.372
158.0, -1029.2307769335243, -1004.2638783769463, -2954.6994512914957, 1106.724274960074, 3522.344353478474, 3878.6088083516133, 881.2845803838469, -3872.752651304323, -0.31, -0.23600000000000002, 0.9, 192.0, 0.0, 0.0, 0.0, 0.0, 0.0, 0.0, 0.0, 0.0, 0.0, 1.700579051376515E9, 0.0, 2023-11-21 10:04:11.376
159.0, -1032.2259106905356, -1008.6448202901865, -2948.373907610644, 1101.0692836128812, 3515.281202230597, 3869.601055336125, 871.0474814233162, -3879.1452502185407, -0.304, -0.23600000000000002, 0.91, 192.0, 246.0, 128.0, 248.0, 160.0, 28.0, 112.0, 0.0, 0.0, 0.0, 1.700579051379513E9, 0.0, 2023-11-21 10:04:11.379
160.0, -1024.1345791977144, -1003.2356981320022, -2970.4574311324873, 1085.0207310939707, 3502.473652657706, 3857.0170232077867, 860.7209754849644, -3889.9187910459987, -0.304, -0.23600000000000002, 0.91, 192.0, 0.0, 0.0, 0.0, 0.0, 0.0, 0.0, 0.0, 0.0, 0.0, 1.700579051383528E9, 0.0, 2023-11-21 10:04:11.383
161.0, -1033.1870357021137, -1022.6370123192087, -2980.471012648465, 1091.8603648972946, 3513.291896974075, 3869.3775378915716, 871.0251296788609, -3881.62629385308, -0.304, -0.23600000000000002, 0.91, 192.0, 0.0, 0.0, 0.0, 0.0, 0.0, 0.0, 0.0, 0.0, 0.0, 1.700579051388536E9, 0.0, 2023-11-21 10:04:11.388
162.0, -1019.6865820511082, -1000.0617504193486, -2957.783992026328, 1105.3608185483001, 3522.8807953454016, 3880.5757618636803, 880.1893449055368, -3872.19385769294, -0.304, -0.23600000000000002, 0.91, 192.0, 0.0, 0.0, 0.0, 0.0, 0.0, 0.0, 0.0, 0.0, 0.0, 1.700579051393556E9, 0.0, 2023-11-21 10:04:11.393
163.0, -1041.8371608063176, -990.0258171589157, -2950.944358223004, 1098.0965016003254, 3512.017847540122, 3864.4825058558595, 865.3477865872129, -3889.449404412437, -0.304, -0.23600000000000002, 0.91, 192.0, 0.0, 0.0, 0.0, 0.0, 0.0, 0.0, 0.0, 0.0, 0.0, 1.700579051396602E9, 0.0, 2023-11-21 10:04:11.396
164.0, -1048.8109050763733, -1008.175433656625, -2967.3281869087446, 1089.8934113852276, 3509.9838387946893, 3859.9003982425215, 861.9503214300063, -3892.332779447172, -0.304, -0.23600000000000002, 0.91, 192.0, 0.0, 0.0, 0.0, 0.0, 0.0, 0.0, 0.0, 0.0, 0.0, 1.700579051400557E9, 0.0, 2023-11-21 10:04:11.400
165.0, -1004.0627126768486, -1005.0238376884267, -2968.468125875965, 1100.331676045856, 3526.434722713795, 3882.9003432870322, 881.2845803838469, -3867.0529564682197, -0.304, -0.23600000000000002, 0.91, 192.0, 0.0, 0.0, 0.0, 0.0, 0.0, 0.0, 0.0, 0.0, 0.0, 1.70057905140457E9, 0.0, 2023-11-21 10:04:11.404
166.0, -1014.7691982709406, -999.2794393634128, -2956.174666425546, 1112.6251354962749, 3528.4910832036835, 3885.3813869215714, 878.5576675602994, -3871.009215236809, -0.304, -0.23600000000000002, 0.91, 192.0, 0.0, 0.0, 0.0, 0.0, 0.0, 0.0, 0.0, 0.0, 0.0, 1.700579051408591E9, 0.0, 2023-11-21 10:04:11.408
167.0, -1052.4765911670436, -1040.3395939278118, -2973.720785822962, 1101.851594668817, 3518.1422255208763, 3877.781793806767, 872.2321238794475, -3878.4970496293367, -0.304, -0.23600000000000002, 0.91, 192.0, 0.0, 0.0, 0.0, 0.0, 0.0, 0.0, 0.0, 0.0, 0.0, 1.700579051411589E9, 0.0, 2023-11-21 10:04:11.411
168.0, -1051.0013760329934, -1029.141369955703, -2978.280541691845, 1093.626152709264, 3513.604821396449, 3874.6972530719345, 871.9191994570732, -3879.078194985175, -0.304, -0.23600000000000002, 0.91, 192.0, 0.0, 0.0, 0.0, 0.0, 0.0, 0.0, 0.0, 0.0, 0.0, 1.700579051415626E9, 0.0, 2023-11-21 10:04:11.415
169.0, -1023.5757855863317, -1001.5593172978541, -2969.473954376454, 1098.9235161451718, 3519.2374609991866, 3873.9596455049095, 871.3380541012352, -3880.2404856968506, -0.304, -0.24, 0.912, 192.0, 246.0, 128.0, 248.0, 128.0, 28.0, 128.0, 0.0, 0.0, 0.0, 1.700579051421609E9, 0.0, 2023-11-21 10:04:11.421
170.0, -1029.208425189069, -1005.4261690886223, -2964.981253740937, 1100.7787109349622, 3520.7797313666024, 3873.266741426795, 871.7627372458861, -3879.033491496264, -0.304, -0.24, 0.912, 192.0, 0.0, 0.0, 0.0, 0.0, 0.0, 0.0, 0.0, 0.0, 0.0, 1.700579051424603E9, 0.0, 2023-11-21 10:04:11.424
171.0, -1037.2327014485243, -1006.9907912004937, -2959.438021116021, 1102.4550917691101, 3522.3890569673845, 3877.3794624065713, 880.6587315390983, -3874.853715283122, -0.304, -0.24, 0.912, 192.0, 0.0, 0.0, 0.0, 0.0, 0.0, 0.0, 0.0, 0.0, 0.0, 1.700579051428607E9, 0.0, 2023-11-21 10:04:11.428
172.0, -1019.0383814619044, -1013.0928174367926, -2952.933663479527, 1111.3510860623226, 3527.574661681016, 3881.29101768625, 887.2301444089585, -3864.1248779445746, -0.304, -0.24, 0.912, 192.0, 0.0, 0.0, 0.0, 0.0, 0.0, 0.0, 0.0, 0.0, 0.0, 1.700579051431647E9, 0.0, 2023-11-21 10:04:11.431
173.0, -1053.7506406009961, -1049.526160898943, -2980.471012648465, 1091.0557020969036, 3504.574716636505, 3856.011194707298, 859.8269057067521, -3890.4775846573816, -0.304, -0.24, 0.912, 192.0, 0.0, 0.0, 0.0, 0.0, 0.0, 0.0, 0.0, 0.0, 0.0, 1.70057905143563E9, 0.0, 2023-11-21 10:04:11.435
174.0, -1044.2511492074907, -1034.7740095584404, -2980.6498266041076, 1086.495946228021, 3501.4901759016725, 3855.720622029379, 858.4858010394337, -3891.9080963025212, -0.304, -0.24, 0.912, 192.0, 0.0, 0.0, 0.0, 0.0, 0.0, 0.0, 0.0, 0.0, 0.0, 1.700579051439671E9, 0.0, 2023-11-21 10:04:11.439
175.0, -1011.4611400915552, -998.4077213296558, -2967.797573542306, 1095.5707544768757, 3514.543594663572, 3870.00338673632, 875.8754582256626, -3874.071404227186, -0.304, -0.24, 0.912, 192.0, 0.0, 0.0, 0.0, 0.0, 0.0, 0.0, 0.0, 0.0, 0.0, 1.700579051443654E9, 0.0, 2023-11-21 10:04:11.443
176.0, -1021.273555907435, -995.7031602505638, -2960.086221705225, 1098.722350445074, 3518.0528185430553, 3874.5407908607476, 877.8871152266402, -3866.8964942570324, -0.304, -0.24, 0.912, 192.0, 0.0, 0.0, 0.0, 0.0, 0.0, 0.0, 0.0, 0.0, 0.0, 1.700579051448679E9, 0.0, 2023-11-21 10:04:11.448
177.0, -1011.7517127694742, -997.8712794627285, -2961.628492072641, 1102.4103882801996, 3522.5231674341167, 3881.4698316418926, 878.892943727129, -3859.5427703312366, -0.304, -0.24, 0.912, 192.0, 0.0, 0.0, 0.0, 0.0, 0.0, 0.0, 0.0, 0.0, 0.0, 1.700579051452629E9, 0.0, 2023-11-21 10:04:11.452
178.0, -1015.8644337492507, -1004.0403609323932, -2971.9773497554484, 1096.6436382107304, 3515.996458053167, 3872.484430370859, 866.8677052101738, -3868.952854746921, -0.304, -0.24, 0.912, 192.0, 0.0, 0.0, 0.0, 0.0, 0.0, 0.0, 0.0, 0.0, 0.0, 1.700579051455669E9, 0.0, 2023-11-21 10:04:11.455
179.0, -1029.5660531003539, -989.9140584366392, -2969.92098926556, 1090.0498735964147, 3505.8487660704573, 3860.794468020734, 852.02614689185, -3889.6729218569903, -0.308, -0.246, 0.906, 192.0, 246.0, 96.0, 248.0, 80.0, 28.0, 80.0, 0.0, 0.0, 0.0, 1.700579051459685E9, 0.0, 2023-11-21 10:04:11.459
180.0, -1051.5825213888313, -1000.8887649641949, -2962.991948484415, 1098.4094260226996, 3509.447396927762, 3866.360052390105, 851.959091658484, -3888.2871137007614, -0.308, -0.246, 0.906, 192.0, 0.0, 0.0, 0.0, 0.0, 0.0, 0.0, 0.0, 0.0, 0.0, 1.700579051463687E9, 0.0, 2023-11-21 10:04:11.463
181.0, -1037.6797363376304, -1024.1345791977144, -2962.7684310398618, 1109.0041528945153, 3525.4288942133066, 3893.8750498145882, 878.60237104921, -3860.8615232540997, -0.308, -0.246, 0.906, 192.0, 0.0, 0.0, 0.0, 0.0, 0.0, 0.0, 0.0, 0.0, 0.0, 1.700579051467733E9, 0.0, 2023-11-21 10:04:11.467
182.0, -1037.143294470703, -1034.3493264137896, -2975.374814912655, 1092.7320829310518, 3513.403655696351, 3882.520363631292, 875.3166646142798, -3855.3853458625495, -0.308, -0.246, 0.906, 192.0, 0.0, 0.0, 0.0, 0.0, 0.0, 0.0, 0.0, 0.0, 0.0, 1.700579051471743E9, 0.0, 2023-11-21 10:04:11.471
183.0, -1035.82454154784, -1015.6409163046976, -2968.468125875965, 1090.6086672077975, 3506.3852079373846, 3867.9917297353427, 862.0173766633721, -3872.52913385977, -0.308, -0.246, 0.906, 192.0, 0.0, 0.0, 0.0, 0.0, 0.0, 0.0, 0.0, 0.0, 0.0, 1.700579051476707E9, 0.0, 2023-11-21 10:04:11.476
184.0, -1042.9323962846277, -1000.6428957751866, -2955.7499832808953, 1100.8010626794176, 3515.281202230597, 3869.198723935929, 860.6539202515985, -3879.078194985175, -0.308, -0.246, 0.906, 192.0, 0.0, 0.0, 0.0, 0.0, 0.0, 0.0, 0.0, 0.0, 0.0, 1.700579051480725E9, 0.0, 2023-11-21 10:04:11.480
185.0, -1031.0189164899489, -1000.598192286276, -2946.2281401429345, 1113.3850948077554, 3528.9157663483343, 3882.945046775943, 875.3613681031904, -3861.6661860544905, -0.308, -0.246, 0.906, 192.0, 0.0, 0.0, 0.0, 0.0, 0.0, 0.0, 0.0, 0.0, 0.0, 1.70057905148372E9, 0.0, 2023-11-21 10:04:11.483
186.0, -1024.6039658312757, -996.0831399063039, -2956.44288735901, 1106.232536582057, 3522.836091856491, 3879.8158025522, 872.0980134127157, -3865.1977616784293, -0.308, -0.246, 0.906, 192.0, 0.0, 0.0, 0.0, 0.0, 0.0, 0.0, 0.0, 0.0, 0.0, 1.700579051487724E9, 0.0, 2023-11-21 10:04:11.487
187.0, -1028.0237827329377, -1001.9616486980497, -2969.92098926556, 1095.3919405212332, 3511.9731440512114, 3870.897456514532, 864.6325307646431, -3871.746822803834, -0.308, -0.246, 0.906, 192.0, 0.0, 0.0, 0.0, 0.0, 0.0, 0.0, 0.0, 0.0, 0.0, 1.700579051491747E9, 0.0, 2023-11-21 10:04:11.491
188.0, -1026.2579949209685, -1007.1025499227703, -2969.563361354275, 1095.0566643544037, 3512.5989928959602, 3874.786660049756, 867.9852924329392, -3870.0257384807755, -0.308, -0.246, 0.906, 192.0, 0.0, 0.0, 0.0, 0.0, 0.0, 0.0, 0.0, 0.0, 0.0, 1.700579051495745E9, 0.0, 2023-11-21 10:04:11.495
189.0, -1029.498997866988, -1003.213346387547, -2960.957939738982, 1101.5833737353532, 3516.957583064745, 3877.1782967064737, 863.7608127308861, -3880.1287269745744, -0.302, -0.23800000000000002, 0.908, 192.0, 246.0, 144.0, 248.0, 144.0, 28.0, 96.0, 0.0, 0.0, 0.0, 1.700579051499765E9, 0.0, 2023-11-21 10:04:11.499
190.0, -1020.6700588071417, -984.4155293006337, -2951.4360966010213, 1106.8136819378951, 3520.3550482219516, 3876.328930417172, 862.3526528302018, -3886.6554363555238, -0.302, -0.23800000000000002, 0.908, 192.0, 0.0, 0.0, 0.0, 0.0, 0.0, 0.0, 0.0, 0.0, 0.0, 1.700579051503786E9, 0.0, 2023-11-21 10:04:11.503
191.0, -1020.7371140405077, -1001.1346341532034, -2979.6439981036187, 1088.7311206735517, 3508.799196338558, 3870.4057181365156, 867.828830221752, -3875.6583780835126, -0.302, -0.23800000000000002, 0.908, 192.0, 0.0, 0.0, 0.0, 0.0, 0.0, 0.0, 0.0, 0.0, 0.0, 1.700579051508794E9, 0.0, 2023-11-21 10:04:11.508
192.0, -1027.5767478438315, -1010.7011807800748, -2988.472937163465, 1083.9254956156608, 3506.6757806153037, 3868.52817160227, 867.3147400992799, -3879.6369885965573, -0.302, -0.23800000000000002, 0.908, 192.0, 0.0, 0.0, 0.0, 0.0, 0.0, 0.0, 0.0, 0.0, 0.0, 1.700579051511776E9, 0.0, 2023-11-21 10:04:11.511
193.0, -1040.786628816918, -1006.0296661889156, -2980.7168818374735, 1091.010998607993, 3511.9731440512114, 3870.9645117478985, 864.7442894869197, -3885.940180532954, -0.302, -0.23800000000000002, 0.908, 192.0, 0.0, 0.0, 0.0, 0.0, 0.0, 0.0, 0.0, 0.0, 0.0, 1.700579051515787E9, 0.0, 2023-11-21 10:04:11.515
194.0, -1046.7768963309404, -999.793529485885, -2976.0006637574033, 1092.1285858307583, 3507.9051265603457, 3866.00242447882, 860.1621818735817, -3890.745805590845, -0.302, -0.23800000000000002, 0.908, 192.0, 0.0, 0.0, 0.0, 0.0, 0.0, 0.0, 0.0, 0.0, 0.0, 1.700579051519794E9, 0.0, 2023-11-21 10:04:11.519
195.0, -1034.1258089692365, -992.7303782380079, -2967.954035753493, 1103.3715132917778, 3520.9138418333346, 3879.3464159186383, 870.4216325785676, -3882.654474098024, -0.302, -0.23800000000000002, 0.908, 192.0, 0.0, 0.0, 0.0, 0.0, 0.0, 0.0, 0.0, 0.0, 0.0, 1.700579051523793E9, 0.0, 2023-11-21 10:04:11.523
196.0, -1028.9402042556053, -982.5826862552984, -2965.6741578190517, 1102.723312702574, 3521.3608767224405, 3876.753613561823, 866.0183389208721, -3886.9907125223535, -0.302, -0.23800000000000002, 0.908, 192.0, 0.0, 0.0, 0.0, 0.0, 0.0, 0.0, 0.0, 0.0, 0.0, 1.700579051527819E9, 0.0, 2023-11-21 10:04:11.527
197.0, -1041.948919528594, -1006.7672737559407, -2967.1046694641914, 1101.6727807131745, 3517.8069493540465, 3871.1880291924513, 860.7209754849644, -3893.6068288811243, -0.302, -0.23800000000000002, 0.908, 192.0, 0.0, 0.0, 0.0, 0.0, 0.0, 0.0, 0.0, 0.0, 0.0, 1.70057905153182E9, 0.0, 2023-11-21 10:04:11.531
198.0, -1052.4542394225884, -1038.3279369268344, -2970.859762532683, 1108.2665453274901, 3527.1276267919097, 3877.647683340035, 863.6714057530648, -3890.656398613024, -0.302, -0.23800000000000002, 0.908, 192.0, 0.0, 0.0, 0.0, 0.0, 0.0, 0.0, 0.0, 0.0, 0.0, 1.700579051536861E9, 0.0, 2023-11-21 10:04:11.536
199.0, -1035.7127828255634, -1021.0053349739713, -2973.1619922115797, 1099.6164202232862, 3520.489158688684, 3873.2890931712504, 871.6956820125201, -3864.4825058558595, -0.302, -0.232, 0.908, 192.0, 246.0, 144.0, 248.0, 192.0, 28.0, 96.0, 0.0, 0.0, 0.0, 1.70057905153984E9, 0.0, 2023-11-21 10:04:11.539
200.0, -1015.3726953712339, -1002.1181109092369, -2960.734422294429, 1106.880737171261, 3526.971164580723, 3881.492183386348, 878.825888493763, -3866.292997156739, -0.302, -0.232, 0.908, 192.0, 0.0, 0.0, 0.0, 0.0, 0.0, 0.0, 0.0, 0.0, 0.0, 1.700579051542873E9, 0.0, 2023-11-21 10:04:11.542
201.0, -1023.2852129084126, -999.0112184299492, -2953.023070457348, 1110.6805337286632, 3527.5970134254712, 3886.208401466418, 879.474089082967, -3867.4105843795046, -0.302, -0.232, 0.908, 192.0, 0.0, 0.0, 0.0, 0.0, 0.0, 0.0, 0.0, 0.0, 0.0, 1.70057905154786E9, 0.0, 2023-11-21 10:04:11.547
202.0, -1022.5476053413875, -998.3183143518346, -2960.9132362500713, 1102.008056880004, 3518.768074365625, 3874.741956560845, 865.4371935650341, -3882.363901420105, -0.302, -0.232, 0.908, 192.0, 0.0, 0.0, 0.0, 0.0, 0.0, 0.0, 0.0, 0.0, 0.0, 1.700579051551877E9, 0.0, 2023-11-21 10:04:11.551
203.0, -1034.1481607136918, -1002.5204423094324, -2960.10857344968, 1102.5444987469314, 3522.1655395228318, 3877.111241473108, 867.1806296325481, -3885.29197994375, -0.302, -0.232, 0.908, 192.0, 0.0, 0.0, 0.0, 0.0, 0.0, 0.0, 0.0, 0.0, 0.0, 1.700579051555896E9, 0.0, 2023-11-21 10:04:11.555
204.0, -1045.7040125970857, -999.078273663315, -2957.3816606261325, 1100.0187516234819, 3520.0421237995774, 3876.9547792619205, 868.5664377887772, -3885.9848840218647, -0.302, -0.232, 0.908, 192.0, 0.0, 0.0, 0.0, 0.0, 0.0, 0.0, 0.0, 0.0, 0.0, 1.700579051559844E9, 0.0, 2023-11-21 10:04:11.559
205.0, -1042.3512509287896, -991.2998665928683, -2961.5390850948197, 1096.107196343803, 3513.090731273977, 3865.1307064450634, 858.5305045283443, -3898.5689161502028, -0.302, -0.232, 0.908, 192.0, 0.0, 0.0, 0.0, 0.0, 0.0, 0.0, 0.0, 0.0, 0.0, 1.700579051563889E9, 0.0, 2023-11-21 10:04:11.563
206.0, -1028.6272798332311, -995.3231805948235, -2957.783992026328, 1100.7787109349622, 3517.628135398404, 3868.3493576466276, 864.5878272757325, -3889.0917765011523, -0.302, -0.232, 0.908, 192.0, 0.0, 0.0, 0.0, 0.0, 0.0, 0.0, 0.0, 0.0, 0.0, 1.700579051566935E9, 0.0, 2023-11-21 10:04:11.566
207.0, -1036.3162799258566, -993.8256137163179, -2960.309739149778, 1098.9011644007164, 3520.153882521854, 3871.5680088481918, 867.9182371995732, -3883.682654342968, -0.302, -0.232, 0.908, 192.0, 0.0, 0.0, 0.0, 0.0, 0.0, 0.0, 0.0, 0.0, 0.0, 1.70057905157091E9, 0.0, 2023-11-21 10:04:11.570
208.0, -1031.2200821900467, -995.2561253614576, -2977.341768424722, 1094.3414085318338, 3522.7243331342142, 3877.4688693843927, 874.6461122806206, -3875.792488550245, -0.302, -0.232, 0.908, 192.0, 0.0, 0.0, 0.0, 0.0, 0.0, 0.0, 0.0, 0.0, 0.0, 1.700579051575914E9, 0.0, 2023-11-21 10:04:11.575
209.0, -1062.9595593165827, -1029.3872391447114, -2976.5147538798756, 1098.0517981114147, 3525.69711514677, 3879.234657196362, 874.8025744918078, -3881.2463141973394, -0.306, -0.232, 0.906, 192.0, 246.0, 112.0, 248.0, 192.0, 28.0, 80.0, 0.0, 0.0, 0.0, 1.700579051579936E9, 0.0, 2023-11-21 10:04:11.579
210.0, -1034.1481607136918, -1006.8566807337619, -2959.2368554159234, 1101.9186499021828, 3524.713638390737, 3876.7983170507337, 874.5790570472548, -3875.725433316879, -0.306, -0.232, 0.906, 192.0, 0.0, 0.0, 0.0, 0.0, 0.0, 0.0, 0.0, 0.0, 0.0, 1.700579051583963E9, 0.0, 2023-11-21 10:04:11.583
211.0, -1055.270559223957, -1024.2910414089015, -2964.891846763116, 1099.8622894122946, 3518.8127778545354, 3871.4786018703703, 863.6267022641542, -3892.042206769253, -0.306, -0.232, 0.906, 192.0, 0.0, 0.0, 0.0, 0.0, 0.0, 0.0, 0.0, 0.0, 0.0, 1.700579051587894E9, 0.0, 2023-11-21 10:04:11.587
212.0, -1018.8819192507171, -1004.1521196546698, -2966.791745041817, 1099.9516963901158, 3521.9420220782786, 3881.492183386348, 877.3506733597128, -3869.3998896360267, -0.306, -0.232, 0.906, 192.0, 0.0, 0.0, 0.0, 0.0, 0.0, 0.0, 0.0, 0.0, 0.0, 1.700579051591914E9, 0.0, 2023-11-21 10:04:11.591
213.0, -1025.5203873539433, -1004.8003202438737, -2966.7693932973616, 1094.430815509655, 3517.8516528429573, 3877.4465176399376, 876.0989756702156, -3871.858581526111, -0.306, -0.232, 0.906, 192.0, 0.0, 0.0, 0.0, 0.0, 0.0, 0.0, 0.0, 0.0, 0.0, 1.700579051594927E9, 0.0, 2023-11-21 10:04:11.594
214.0, -1042.2841956954237, -1010.7011807800748, -2964.1095357071804, 1093.6038009648087, 3516.577603409005, 3873.3785001490714, 872.8132692352855, -3876.6642065840015, -0.306, -0.232, 0.906, 192.0, 0.0, 0.0, 0.0, 0.0, 0.0, 0.0, 0.0, 0.0, 0.0, 1.700579051598922E9, 0.0, 2023-11-21 10:04:11.598
215.0, -1022.9722884860383, -997.0889684067928, -2956.152314681091, 1099.3258475453672, 3520.9361935777897, 3876.3736339060824, 875.2719611253692, -3872.0597472262084, -0.306, -0.232, 0.906, 192.0, 0.0, 0.0, 0.0, 0.0, 0.0, 0.0, 0.0, 0.0, 0.0, 1.70057905160402E9, 0.0, 2023-11-21 10:04:11.604
216.0, -1003.0121806874491, -969.1939913265695, -2952.7101460349736, 1099.3929027787333, 3522.9254988343123, 3876.6642065840015, 875.8307547367519, -3873.825535038178, -0.306, -0.232, 0.906, 192.0, 0.0, 0.0, 0.0, 0.0, 0.0, 0.0, 0.0, 0.0, 0.0, 1.700579051607983E9, 0.0, 2023-11-21 10:04:11.607
217.0, -1010.8129395023512, -986.9636281685387, -2960.9355879945265, 1094.9672573765824, 3519.2598127436418, 3874.518439116292, 874.2437808804251, -3877.4688693843927, -0.306, -0.232, 0.906, 192.0, 0.0, 0.0, 0.0, 0.0, 0.0, 0.0, 0.0, 0.0, 0.0, 1.700579051612017E9, 0.0, 2023-11-21 10:04:11.612
218.0, -1012.6457825476865, -986.8295177018068, -2959.1921519270127, 1096.5542312329092, 3520.6679726443263, 3872.976168748876, 872.5674000462772, -3877.200648450929, -0.306, -0.232, 0.906, 192.0, 0.0, 0.0, 0.0, 0.0, 0.0, 0.0, 0.0, 0.0, 0.0, 1.700579051616006E9, 0.0, 2023-11-21 10:04:11.616
219.0, -1035.533968869921, -1011.8634714917507, -2960.82382927225, 1104.042065625437, 3527.1276267919097, 3874.853715283122, 867.8511819662074, -3886.878953800077, -0.306, -0.23800000000000002, 0.906, 192.0, 246.0, 112.0, 248.0, 144.0, 28.0, 80.0, 0.0, 0.0, 0.0, 1.700579051620011E9, 0.0, 2023-11-21 10:04:11.620
220.0, -1025.1627594426584, -1004.2862301214017, -2967.439945631021, 1096.9342108886494, 3520.2656412441306, 3869.601055336125, 864.2972545978135, -3877.044186239742, -0.306, -0.23800000000000002, 0.906, 192.0, 0.0, 0.0, 0.0, 0.0, 0.0, 0.0, 0.0, 0.0, 0.0, 1.700579051625027E9, 0.0, 2023-11-21 10:04:11.625
221.0, -1047.0004137754934, -1019.7089337955636, -2972.8714195336606, 1091.3462747748226, 3523.998382568167, 3874.361976905105, 875.1602024030927, -3872.9538170044207, -0.306, -0.23800000000000002, 0.906, 192.0, 0.0, 0.0, 0.0, 0.0, 0.0, 0.0, 0.0, 0.0, 0.0, 1.700579051628021E9, 0.0, 2023-11-21 10:04:11.628
222.0, -1071.5873326763312, -1040.8983875391946, -2976.380643413144, 1089.0663968403812, 3520.6903243887814, 3865.980072734365, 869.0581761667939, -3884.4426136544485, -0.306, -0.23800000000000002, 0.906, 192.0, 0.0, 0.0, 0.0, 0.0, 0.0, 0.0, 0.0, 0.0, 0.0, 1.700579051632052E9, 0.0, 2023-11-21 10:04:11.632
223.0, -1041.9712712730493, -1018.0549047058707, -2966.054137474792, 1099.3929027787333, 3528.8040076260577, 3872.5961890931358, 875.6966442700201, -3881.4698316418926, -0.306, -0.23800000000000002, 0.906, 192.0, 0.0, 0.0, 0.0, 0.0, 0.0, 0.0, 0.0, 0.0, 0.0, 1.700579051636055E9, 0.0, 2023-11-21 10:04:11.636
224.0, -1024.3133931533569, -1000.1511573971699, -2957.091087948214, 1103.0138853804929, 3528.5357866925942, 3872.395023393038, 868.1194028996711, -3891.8186893247, -0.306, -0.23800000000000002, 0.906, 192.0, 0.0, 0.0, 0.0, 0.0, 0.0, 0.0, 0.0, 0.0, 0.0, 1.700579051640052E9, 0.0, 2023-11-21 10:04:11.640
225.0, -1027.7108583105635, -1005.403817344167, -2959.5274280938424, 1100.7116557015963, 3523.573699423516, 3875.144287961041, 876.4342518370453, -3882.587418864658, -0.306, -0.23800000000000002, 0.906, 192.0, 0.0, 0.0, 0.0, 0.0, 0.0, 0.0, 0.0, 0.0, 0.0, 1.700579051644059E9, 0.0, 2023-11-21 10:04:11.644
226.0, -1030.7953990453957, -991.9033636931615, -2963.7072043069847, 1095.2578300545015, 3515.4376644417844, 3871.143325703541, 877.8871152266402, -3883.257971198317, -0.306, -0.23800000000000002, 0.906, 192.0, 0.0, 0.0, 0.0, 0.0, 0.0, 0.0, 0.0, 0.0, 0.0, 1.700579051647066E9, 0.0, 2023-11-21 10:04:11.647
227.0, -998.4077213296558, -967.0929273477707, -2951.950186723493, 1105.8302051818616, 3519.9750685662116, 3876.7312618173673, 880.8375454947408, -3881.0898519861526, -0.306, -0.23800000000000002, 0.906, 192.0, 0.0, 0.0, 0.0, 0.0, 0.0, 0.0, 0.0, 0.0, 0.0, 1.700579051651062E9, 0.0, 2023-11-21 10:04:11.651
228.0, -1012.0422854473932, -987.6341805021979, -2947.7480587658956, 1115.0391238974482, 3527.440551214284, 3885.917828788499, 884.1456036741262, -3874.786660049756, -0.306, -0.23800000000000002, 0.906, 192.0, 0.0, 0.0, 0.0, 0.0, 0.0, 0.0, 0.0, 0.0, 0.0, 1.700579051655086E9, 0.0, 2023-11-21 10:04:11.655
229.0, -1029.2307769335243, -1009.4941865794882, -2964.914198507571, 1102.9915336360377, 3521.4279319558063, 3881.939218275454, 877.1718594040703, -3882.4086049090156, -0.302, -0.234, 0.908, 192.0, 246.0, 144.0, 248.0, 176.0, 28.0, 96.0, 0.0, 0.0, 0.0, 1.700579051659097E9, 0.0, 2023-11-21 10:04:11.659
230.0, -1055.9858150465268, -1023.3522681417786, -2966.948207253004, 1100.108158601303, 3517.4493214427616, 3878.1170699735967, 871.1368884011374, -3895.5067271598255, -0.302, -0.234, 0.908, 192.0, 0.0, 0.0, 0.0, 0.0, 0.0, 0.0, 0.0, 0.0, 0.0, 1.7005790516641E9, 0.0, 2023-11-21 10:04:11.664
231.0, -1025.118055953748, -992.7974334713738, -2951.793724512306, 1110.300554072923, 3524.065437801533, 3883.1015089871303, 876.2554378814028, -3890.522288146292, -0.302, -0.234, 0.908, 192.0, 0.0, 0.0, 0.0, 0.0, 0.0, 0.0, 0.0, 0.0, 0.0, 1.700579051668054E9, 0.0, 2023-11-21 10:04:11.668
232.0, -1031.10832346777, -996.9325061956056, -2945.2223116424457, 1116.8272634538728, 3528.7593041371474, 3884.643779354546, 876.1660309035816, -3889.8293840681777, -0.302, -0.234, 0.908, 192.0, 0.0, 0.0, 0.0, 0.0, 0.0, 0.0, 0.0, 0.0, 0.0, 1.70057905167212E9, 0.0, 2023-11-21 10:04:11.672
233.0, -1030.4377711341108, -997.2454306179799, -2944.5517593087866, 1109.495891272532, 3519.416274954829, 3876.3512821616273, 867.7394232439308, -3891.5504683912363, -0.302, -0.234, 0.908, 192.0, 0.0, 0.0, 0.0, 0.0, 0.0, 0.0, 0.0, 0.0, 0.0, 1.700579051675134E9, 0.0, 2023-11-21 10:04:11.675
234.0, -1024.4922071089993, -988.885878191695, -2952.285462890323, 1099.012923122993, 3510.430873683795, 3871.0315669812644, 865.2583796093917, -3891.036378268764, -0.302, -0.234, 0.908, 192.0, 0.0, 0.0, 0.0, 0.0, 0.0, 0.0, 0.0, 0.0, 0.0, 1.700579051679133E9, 0.0, 2023-11-21 10:04:11.679
235.0, -1027.0626577213595, -987.2542008464577, -2964.400108385099, 1093.4026352647109, 3507.927478304801, 3870.00338673632, 865.7724697318638, -3894.38913993706, -0.302, -0.234, 0.908, 192.0, 0.0, 0.0, 0.0, 0.0, 0.0, 0.0, 0.0, 0.0, 0.0, 1.70057905168314E9, 0.0, 2023-11-21 10:04:11.683
236.0, -1013.9198319816389, -986.9636281685387, -2958.208675170979, 1098.6329434672527, 3513.671876629815, 3877.8041455512225, 873.2379523799364, -3886.543677633247, -0.302, -0.234, 0.908, 192.0, 0.0, 0.0, 0.0, 0.0, 0.0, 0.0, 0.0, 0.0, 0.0, 1.700579051687163E9, 0.0, 2023-11-21 10:04:11.687
237.0, -1032.0247449904377, -1010.3435528687899, -2954.118305935658, 1106.880737171261, 3517.270507487119, 3884.934352032465, 874.9813884474503, -3885.560200877214, -0.302, -0.234, 0.908, 192.0, 0.0, 0.0, 0.0, 0.0, 0.0, 0.0, 0.0, 0.0, 0.0, 1.700579051692155E9, 0.0, 2023-11-21 10:04:11.692
238.0, -1043.625300362742, -1021.6088320742646, -2952.3972216125994, 1106.4560540266102, 3521.0703040445214, 3888.3318171896717, 874.60140879171, -3890.455232912926, -0.302, -0.234, 0.908, 192.0, 0.0, 0.0, 0.0, 0.0, 0.0, 0.0, 0.0, 0.0, 0.0, 1.700579051696172E9, 0.0, 2023-11-21 10:04:11.696
239.0, -1022.3017361523791, -1001.4252068311223, -2941.511922062865, 1114.949716919627, 3529.631022170904, 3891.5951718801466, 871.181591890048, -3890.075253257186, -0.308, -0.228, 0.904, 192.0, 246.0, 96.0, 248.0, 224.0, 28.0, 64.0, 0.0, 0.0, 0.0, 1.700579051699187E9, 0.0, 2023-11-21 10:04:11.699
240.0, -1031.8459310347953, -1005.9402592110944, -2959.3039106492893, 1099.4599580120992, 3509.536803905583, 3874.3172734161944, 863.2690743528693, -3882.587418864658, -0.308, -0.228, 0.904, 192.0, 0.0, 0.0, 0.0, 0.0, 0.0, 0.0, 0.0, 0.0, 0.0, 1.700579051703191E9, 0.0, 2023-11-21 10:04:11.703
241.0, -1017.049076205382, -994.5632212833431, -2962.1872856840237, 1094.2296498095573, 3509.156824249843, 3876.463040883904, 869.8404872227296, -3876.820668795189, -0.308, -0.228, 0.904, 192.0, 0.0, 0.0, 0.0, 0.0, 0.0, 0.0, 0.0, 0.0, 0.0, 1.700579051707195E9, 0.0, 2023-11-21 10:04:11.707
242.0, -1005.3814655997116, -964.6342354576869, -2938.896767961594, 1108.1547866052135, 3521.0032488111556, 3885.0908142436524, 875.7189960144754, -3869.4445931249375, -0.308, -0.228, 0.904, 192.0, 0.0, 0.0, 0.0, 0.0, 0.0, 0.0, 0.0, 0.0, 0.0, 1.700579051711197E9, 0.0, 2023-11-21 10:04:11.711
243.0, -1038.4173439046556, -1003.4592155765553, -2950.2067506559792, 1107.3948272937332, 3521.606745911449, 3887.7059683449233, 875.8307547367519, -3870.6739390699795, -0.308, -0.228, 0.904, 192.0, 0.0, 0.0, 0.0, 0.0, 0.0, 0.0, 0.0, 0.0, 0.0, 1.700579051715234E9, 0.0, 2023-11-21 10:04:11.715
244.0, -1026.5262158544322, -1008.6448202901865, -2953.87243674665, 1111.2840308289565, 3523.8866238458904, 3891.617523624602, 878.0435774378274, -3868.4611163689037, -0.308, -0.228, 0.904, 192.0, 0.0, 0.0, 0.0, 0.0, 0.0, 0.0, 0.0, 0.0, 0.0, 1.700579051720238E9, 0.0, 2023-11-21 10:04:11.720
245.0, -998.4077213296558, -965.2377325579802, -2952.4866285904204, 1098.7670539339847, 3507.8157195825247, 3876.9324275174654, 865.9959871764169, -3872.4173751374933, -0.308, -0.228, 0.904, 192.0, 0.0, 0.0, 0.0, 0.0, 0.0, 0.0, 0.0, 0.0, 0.0, 1.700579051724251E9, 0.0, 2023-11-21 10:04:11.724
246.0, -1077.1529170457027, -1048.3191666983566, -2974.056061989792, 1092.7991381644176, 3504.1723852363093, 3871.210380936907, 859.2681120953694, -3886.7224915888896, -0.308, -0.228, 0.904, 192.0, 0.0, 0.0, 0.0, 0.0, 0.0, 0.0, 0.0, 0.0, 0.0, 1.700579051727237E9, 0.0, 2023-11-21 10:04:11.727
247.0, -1078.337559501834, -1040.2948904389013, -2968.155201453591, 1105.0925976148364, 3519.3045162325525, 3888.2871137007614, 875.4060715921011, -3870.495125114337, -0.308, -0.228, 0.904, 192.0, 0.0, 0.0, 0.0, 0.0, 0.0, 0.0, 0.0, 0.0, 0.0, 1.700579051731227E9, 0.0, 2023-11-21 10:04:11.731
248.0, -1047.6709661091527, -1027.1073612102703, -2963.640149073619, 1112.401618051722, 3525.7194668912252, 3896.19963123794, 883.0727199402714, -3859.833343009155, -0.308, -0.228, 0.904, 192.0, 0.0, 0.0, 0.0, 0.0, 0.0, 0.0, 0.0, 0.0, 0.0, 1.700579051735272E9, 0.0, 2023-11-21 10:04:11.735
249.0, -1041.367774172756, -1013.7857215149071, -2957.404012370588, 1109.8535191838168, 3514.7894638525804, 3885.515497388303, 870.667501767576, -3870.919808258988, -0.308, -0.228, 0.904, 192.0, 0.0, 0.0, 0.0, 0.0, 0.0, 0.0, 0.0, 0.0, 0.0, 1.700579051739274E9, 0.0, 2023-11-21 10:04:11.739
250.0, -1017.0714279498372, -984.9072676786504, -2948.999756455393, 1106.724274960074, 3505.737007348181, 3876.7983170507337, 865.0348621648386, -3869.9586832474097, -0.308, -0.23600000000000002, 0.9, 192.0, 246.0, 96.0, 248.0, 160.0, 28.0, 32.0, 0.0, 0.0, 0.0, 1.700579051745277E9, 0.0, 2023-11-21 10:04:11.745
251.0, -1027.1520646991808, -990.2493346034688, -2955.72763153644, 1103.4832720140544, 3507.7486643491584, 3879.5028781298256, 874.1767256470592, -3862.5826075771583, -0.308, -0.23600000000000002, 0.9, 192.0, 0.0, 0.0, 0.0, 0.0, 0.0, 0.0, 0.0, 0.0, 0.0, 1.700579051748272E9, 0.0, 2023-11-21 10:04:11.748
252.0, -1033.790532802407, -990.919886937128, -2957.046384459303, 1099.1917370786355, 3508.463920171728, 3879.704043829923, 877.7753565043637, -3858.805162764211, -0.308, -0.23600000000000002, 0.9, 192.0, 0.0, 0.0, 0.0, 0.0, 0.0, 0.0, 0.0, 0.0, 0.0, 1.700579051752285E9, 0.0, 2023-11-21 10:04:11.752
253.0, -1055.1364487572253, -1008.3989511011781, -2956.755811781384, 1102.9021266582165, 3511.727274862203, 3877.200648450929, 869.5499145448107, -3870.584532092158, -0.308, -0.23600000000000002, 0.9, 192.0, 0.0, 0.0, 0.0, 0.0, 0.0, 0.0, 0.0, 0.0, 0.0, 1.70057905175529E9, 0.0, 2023-11-21 10:04:11.755
254.0, -1008.6224685457312, -981.3980437991672, -2955.9735007254485, 1102.8797749137611, 3514.4318359412955, 3878.944084518443, 868.477030810956, -3865.7342035453566, -0.308, -0.23600000000000002, 0.9, 192.0, 0.0, 0.0, 0.0, 0.0, 0.0, 0.0, 0.0, 0.0, 0.0, 1.700579051759292E9, 0.0, 2023-11-21 10:04:11.759
255.0, -1004.6438580326866, -979.8334216872958, -2949.5585500667753, 1106.8360336823505, 3522.5902226674825, 3885.0237590102865, 869.6393215226319, -3867.030604723764, -0.308, -0.23600000000000002, 0.9, 192.0, 0.0, 0.0, 0.0, 0.0, 0.0, 0.0, 0.0, 0.0, 0.0, 1.70057905176331E9, 0.0, 2023-11-21 10:04:11.763
0.0, -1069.240399508524, -1037.791495059907, -2954.922968736049, 1107.1489581047247, 3524.5571761795495, 3884.53202063227, 871.3380541012352, -3867.656453568513, -0.308, -0.23600000000000002, 0.9, 192.0, 0.0, 0.0, 0.0, 0.0, 0.0, 0.0, 0.0, 0.0, 0.0, 1.700579051767314E9, 0.0, 2023-11-21 10:04:11.767
1.0, -1029.1637217001585, -997.8265759738179, -2944.797628497795, 1107.4395307826437, 3524.6018796684602, 3887.7953753227443, 879.9881792054391, -3853.9324824729542, -0.308, -0.23600000000000002, 0.9, 192.0, 0.0, 0.0, 0.0, 0.0, 0.0, 0.0, 0.0, 0.0, 0.0, 1.700579051771404E9, 0.0, 2023-11-21 10:04:11.771
2.0, -1019.8430442622954, -978.0899856197817, -2941.444866829499, 1106.7019232156185, 3522.0761325450103, 3889.9634945349094, 880.0775861832603, -3859.5427703312366, -0.308, -0.23600000000000002, 0.9, 192.0, 0.0, 0.0, 0.0, 0.0, 0.0, 0.0, 0.0, 0.0, 0.0, 1.700579051775355E9, 0.0, 2023-11-21 10:04:11.775
3.0, -1042.820637562351, -1012.3999133586781, -2965.7188613079625, 1091.1227573302697, 3508.9109550608346, 3884.1296892320743, 875.182554147548, -3866.8964942570324, -0.308, -0.23600000000000002, 0.9, 192.0, 0.0, 0.0, 0.0, 0.0, 0.0, 0.0, 0.0, 0.0, 0.0, 1.700579051780401E9, 0.0, 2023-11-21 10:04:11.780
4.0, -1028.6049280887758, -992.8421369602844, -2961.8967130061046, 1095.302533543412, 3511.6155161399265, 3881.6709973419906, 873.2603041243916, -3867.276473912773, -0.304, -0.23, 0.908, 192.0, 246.0, 128.0, 248.0, 208.0, 28.0, 96.0, 0.0, 0.0, 0.0, 1.700579051783394E9, 0.0, 2023-11-21 10:04:11.783
5.0, -999.2794393634128, -955.5594272088323, -2940.3496313511887, 1103.304458058412, 3511.8613853289353, 3878.6311600960685, 870.1534116451039, -3873.490258871348, -0.304, -0.23, 0.908, 192.0, 0.0, 0.0, 0.0, 0.0, 0.0, 0.0, 0.0, 0.0, 0.0, 1.700579051787393E9, 0.0, 2023-11-21 10:04:11.787
6.0, -1042.2841956954237, -998.2959626073794, -2948.7985907552948, 1097.8953359002276, 3502.7865770800804, 3871.4115466370044, 865.2136761204811, -3873.0208722377865, -0.304, -0.23, 0.908, 192.0, 0.0, 0.0, 0.0, 0.0, 0.0, 0.0, 0.0, 0.0, 0.0, 1.700579051791411E9, 0.0, 2023-11-21 10:04:11.791
7.0, -1075.945922845116, -1033.3434979133008, -2962.053175217292, 1102.3880365357443, 3508.486271916184, 3875.5913228501468, 868.0076441773945, -3881.1792589639736, -0.304, -0.23, 0.908, 192.0, 0.0, 0.0, 0.0, 0.0, 0.0, 0.0, 0.0, 0.0, 0.0, 1.7005790517954E9, 0.0, 2023-11-21 10:04:11.795
8.0, -1048.2297597205354, -1023.3746198862339, -2968.3563671536886, 1106.947792404627, 3513.8506905854574, 3876.9547792619205, 865.5489522873107, -3872.976168748876, -0.304, -0.23, 0.908, 192.0, 0.0, 0.0, 0.0, 0.0, 0.0, 0.0, 0.0, 0.0, 0.0, 1.700579051801346E9, 0.0, 2023-11-21 10:04:11.801
9.0, -1013.2045761590691, -1005.6943900220859, -2966.501172363898, 1104.042065625437, 3512.5319376625944, 3882.565067120203, 874.020263435872, -3860.9509302319207, -0.304, -0.23, 0.908, 192.0, 0.0, 0.0, 0.0, 0.0, 0.0, 0.0, 0.0, 0.0, 0.0, 1.700579051804403E9, 0.0, 2023-11-21 10:04:11.804
10.0, -1015.4844540935105, -1002.274573120424, -2966.501172363898, 1099.1023301008142, 3509.5591556500385, 3885.582552621669, 880.1669931610816, -3855.4300493514597, -0.304, -0.23, 0.908, 192.0, 0.0, 0.0, 0.0, 0.0, 0.0, 0.0, 0.0, 0.0, 0.0, 1.700579051807406E9, 0.0, 2023-11-21 10:04:11.807
11.0, -1005.8732039777284, -978.7381862089857, -2955.3700036251553, 1101.2480975685237, 3504.865289314424, 3875.09958447213, 866.3089115987912, -3865.8236105231776, -0.304, -0.23, 0.908, 192.0, 0.0, 0.0, 0.0, 0.0, 0.0, 0.0, 0.0, 0.0, 0.0, 1.70057905181142E9, 0.0, 2023-11-21 10:04:11.811
12.0, -1027.889672266206, -983.9461426670722, -2947.435134343521, 1101.2257458240683, 3502.540707891072, 3867.4999913573256, 852.7414027144198, -3882.073328742186, -0.304, -0.23, 0.908, 192.0, 0.0, 0.0, 0.0, 0.0, 0.0, 0.0, 0.0, 0.0, 0.0, 1.70057905181744E9, 0.0, 2023-11-21 10:04:11.817
13.0, -1050.7778585884403, -1018.5913465727981, -2961.472029861454, 1092.530917230954, 3498.9197252893123, 3867.321177401683, 853.7919347038192, -3880.3745961635827, -0.304, -0.23, 0.908, 192.0, 0.0, 0.0, 0.0, 0.0, 0.0, 0.0, 0.0, 0.0, 0.0, 1.700579051821435E9, 0.0, 2023-11-21 10:04:11.821
14.0, -1027.599099588287, -1018.2337186615132, -2964.534218851831, 1098.0517981114147, 3515.616478397427, 3889.9187910459987, 880.3234553722687, -3847.517531814281, -0.302, -0.23, 0.904, 192.0, 246.0, 144.0, 248.0, 208.0, 28.0, 64.0, 0.0, 0.0, 0.0, 1.700579051824442E9, 0.0, 2023-11-21 10:04:11.824
15.0, -1009.4271313461222, -984.728453723008, -2949.312680877767, 1106.0313708819594, 3526.9488128362673, 3901.8993260740435, 894.6509235681204, -3837.95098518741, -0.302, -0.23, 0.904, 192.0, 0.0, 0.0, 0.0, 0.0, 0.0, 0.0, 0.0, 0.0, 0.0, 1.700579051828467E9, 0.0, 2023-11-21 10:04:11.828
16.0, -1044.4746666520437, -1009.0918551792927, -2959.2592071603785, 1098.5435364894315, 3514.8788708304014, 3886.521325888792, 879.8987722276179, -3860.3027296427167, -0.302, -0.23, 0.904, 192.0, 0.0, 0.0, 0.0, 0.0, 0.0, 0.0, 0.0, 0.0, 0.0, 1.700579051833472E9, 0.0, 2023-11-21 10:04:11.833
17.0, -1039.8031520608845, -992.6856747490973, -2946.4963610763984, 1107.819510438384, 3515.862347586435, 3884.8225933101885, 872.2768273683581, -3869.8245727806775, -0.302, -0.23, 0.904, 192.0, 0.0, 0.0, 0.0, 0.0, 0.0, 0.0, 0.0, 0.0, 0.0, 1.700579051836473E9, 0.0, 2023-11-21 10:04:11.836
18.0, -1030.5718816008427, -997.7148172515414, -2948.977404710937, 1106.7689784489846, 3514.476539430206, 3886.6554363555238, 878.021225693372, -3863.454325610915, -0.302, -0.23, 0.904, 192.0, 0.0, 0.0, 0.0, 0.0, 0.0, 0.0, 0.0, 0.0, 0.0, 1.700579051840499E9, 0.0, 2023-11-21 10:04:11.840
19.0, -1040.0266695054377, -1007.9966197009826, -2955.3923553696104, 1100.845766168328, 3512.308420218041, 3885.3590351771163, 879.474089082967, -3865.331872145161, -0.302, -0.23, 0.904, 192.0, 0.0, 0.0, 0.0, 0.0, 0.0, 0.0, 0.0, 0.0, 0.0, 1.700579051843466E9, 0.0, 2023-11-21 10:04:11.843
20.0, -1031.4212478901445, -969.1492878376589, -2929.665497501552, 1111.17227210668, 3518.701019132259, 3888.3318171896717, 877.8871152266402, -3862.850828510622, -0.302, -0.23, 0.904, 192.0, 0.0, 0.0, 0.0, 0.0, 0.0, 0.0, 0.0, 0.0, 0.0, 1.700579051847483E9, 0.0, 2023-11-21 10:04:11.847
21.0, -1025.5203873539433, -971.630331472198, -2935.6781167600298, 1108.5571180054092, 3514.1636150078316, 3884.777889821278, 874.1543739026039, -3863.454325610915, -0.302, -0.23, 0.904, 192.0, 0.0, 0.0, 0.0, 0.0, 0.0, 0.0, 0.0, 0.0, 0.0, 1.700579051851485E9, 0.0, 2023-11-21 10:04:11.851
22.0, -1017.3172971388457, -994.9655526835386, -2973.117288722669, 1092.7320829310518, 3509.425045183307, 3881.268665941795, 872.0980134127157, -3872.886761771055, -0.302, -0.23, 0.904, 192.0, 0.0, 0.0, 0.0, 0.0, 0.0, 0.0, 0.0, 0.0, 0.0, 1.700579051855588E9, 0.0, 2023-11-21 10:04:11.855
23.0, -1022.3240878968344, -1011.8858232362061, -2972.089108477725, 1092.5756207198644, 3516.0858650309883, 3887.907134045021, 885.151432174615, -3858.0675551971863, -0.302, -0.23, 0.904, 192.0, 0.0, 0.0, 0.0, 0.0, 0.0, 0.0, 0.0, 0.0, 0.0, 1.700579051859509E9, 0.0, 2023-11-21 10:04:11.859
24.0, -1049.3249951988453, -1010.3212011243345, -2962.053175217292, 1095.2578300545015, 3511.6602196288372, 3880.7992793082335, 875.9201617145732, -3867.9917297353427, -0.306, -0.234, 0.904, 192.0, 246.0, 112.0, 248.0, 176.0, 28.0, 64.0, 0.0, 0.0, 0.0, 1.700579051863505E9, 0.0, 2023-11-21 10:04:11.863
25.0, -1044.497018396499, -997.3795410847117, -2958.096916448703, 1101.5833737353532, 3510.9002603173567, 3873.6020175936246, 867.1359261436374, -3879.949913018932, -0.306, -0.234, 0.904, 192.0, 0.0, 0.0, 0.0, 0.0, 0.0, 0.0, 0.0, 0.0, 0.0, 1.700579051866592E9, 0.0, 2023-11-21 10:04:11.866
26.0, -1032.561186857365, -992.6186195157313, -2959.0356897158254, 1105.9196121596829, 3516.1305685198986, 3883.0568054982195, 877.7530047599083, -3863.4990290998257, -0.306, -0.234, 0.904, 192.0, 0.0, 0.0, 0.0, 0.0, 0.0, 0.0, 0.0, 0.0, 0.0, 1.700579051870561E9, 0.0, 2023-11-21 10:04:11.870
27.0, -1020.2230239180356, -983.9684944115276, -2969.250436931901, 1092.2850480419456, 3509.1344725053877, 3880.2404856968506, 877.4177285930788, -3864.661319811502, -0.306, -0.234, 0.904, 192.0, 0.0, 0.0, 0.0, 0.0, 0.0, 0.0, 0.0, 0.0, 0.0, 1.700579051875555E9, 0.0, 2023-11-21 10:04:11.875
28.0, -1037.724439826541, -997.9606864405497, -2963.886018262627, 1095.1907748211354, 3514.2083184967423, 3882.296846186739, 878.669426282576, -3868.997558235831, -0.306, -0.234, 0.904, 192.0, 0.0, 0.0, 0.0, 0.0, 0.0, 0.0, 0.0, 0.0, 0.0, 1.700579051879525E9, 0.0, 2023-11-21 10:04:11.879
29.0, -1057.2822162249347, -1009.4494830905776, -2958.9015792490936, 1094.7660916764846, 3512.017847540122, 3875.524267616781, 870.8016122343079, -3880.396947908038, -0.306, -0.234, 0.904, 192.0, 0.0, 0.0, 0.0, 0.0, 0.0, 0.0, 0.0, 0.0, 0.0, 1.700579051883497E9, 0.0, 2023-11-21 10:04:11.883
30.0, -1032.3823729017226, -988.1259188802146, -2939.7237825064403, 1103.527975502965, 3517.3599144649406, 3876.038357739253, 870.4886878119336, -3878.295883929239, -0.306, -0.234, 0.904, 192.0, 0.0, 0.0, 0.0, 0.0, 0.0, 0.0, 0.0, 0.0, 0.0, 1.700579051887531E9, 0.0, 2023-11-21 10:04:11.887
31.0, -1020.1112651957591, -985.8013374568627, -2937.935642950016, 1101.9633533910935, 3516.7787691091025, 3878.2288286958733, 871.0474814233162, -3874.138459460552, -0.306, -0.234, 0.904, 192.0, 0.0, 0.0, 0.0, 0.0, 0.0, 0.0, 0.0, 0.0, 0.0, 1.700579051891517E9, 0.0, 2023-11-21 10:04:11.891
32.0, -1042.2841956954237, -1016.244413404991, -2960.8908845056158, 1092.6203242087752, 3511.436702184284, 3875.390157150049, 867.7394232439308, -3872.462078626404, -0.306, -0.234, 0.904, 192.0, 0.0, 0.0, 0.0, 0.0, 0.0, 0.0, 0.0, 0.0, 0.0, 1.70057905189457E9, 0.0, 2023-11-21 10:04:11.894
33.0, -1041.9936230175047, -1012.3999133586781, -2968.1328497091354, 1093.201469564613, 3512.151958006854, 3877.111241473108, 870.1757633895593, -3866.203590178918, -0.306, -0.234, 0.904, 192.0, 0.0, 0.0, 0.0, 0.0, 0.0, 0.0, 0.0, 0.0, 0.0, 1.70057905189861E9, 0.0, 2023-11-21 10:04:11.898
34.0, -1025.9003670096836, -1002.1404626536921, -2977.028844002348, 1090.7651294189848, 3510.6543911283484, 3878.0276629957752, 871.6733302680648, -3861.9567587324095, -0.308, -0.234, 0.904, 192.0, 246.0, 96.0, 248.0, 176.0, 28.0, 64.0, 0.0, 0.0, 0.0, 1.700579051903545E9, 0.0, 2023-11-21 10:04:11.903
35.0, -1032.8070560463734, -1010.142387168692, -2975.2630561903784, 1094.9672573765824, 3514.8788708304014, 3880.016968252298, 873.3720628466682, -3867.723508801879, -0.308, -0.234, 0.904, 192.0, 0.0, 0.0, 0.0, 0.0, 0.0, 0.0, 0.0, 0.0, 0.0, 1.700579051907539E9, 0.0, 2023-11-21 10:04:11.907
36.0, -1042.686527095619, -1014.3668668707451, -2967.4622973754763, 1104.1538243477137, 3520.466806944228, 3879.324064174183, 871.6956820125201, -3868.617578580091, -0.308, -0.234, 0.904, 192.0, 0.0, 0.0, 0.0, 0.0, 0.0, 0.0, 0.0, 0.0, 0.0, 1.700579051911545E9, 0.0, 2023-11-21 10:04:11.911
37.0, -1025.0733524648372, -996.2619538619464, -2963.3942798846106, 1097.6494667112192, 3514.6553533858482, 3872.9538170044207, 874.1320221581486, -3862.403793621516, -0.308, -0.234, 0.904, 192.0, 0.0, 0.0, 0.0, 0.0, 0.0, 0.0, 0.0, 0.0, 0.0, 1.700579051915558E9, 0.0, 2023-11-21 10:04:11.915
38.0, -1033.8128845468623, -992.9985991714716, -2957.046384459303, 1092.9108968866942, 3511.481405673195, 3868.170543690985, 873.6402837801319, -3859.2521976533176, -0.308, -0.234, 0.904, 192.0, 0.0, 0.0, 0.0, 0.0, 0.0, 0.0, 0.0, 0.0, 0.0, 1.70057905191857E9, 0.0, 2023-11-21 10:04:11.918
39.0, -1020.401837873678, -985.3766543122118, -2940.4613900734653, 1100.9575248906046, 3515.616478397427, 3870.808049536711, 875.6966442700201, -3857.1287819300633, -0.308, -0.234, 0.904, 192.0, 0.0, 0.0, 0.0, 0.0, 0.0, 0.0, 0.0, 0.0, 0.0, 1.700579051922559E9, 0.0, 2023-11-21 10:04:11.922
40.0, -1028.1578931996696, -999.7041225080637, -2943.3894685971104, 1102.5221470024762, 3515.214146997231, 3873.803183293722, 879.6752547830647, -3857.397002863527, -0.308, -0.234, 0.904, 192.0, 0.0, 0.0, 0.0, 0.0, 0.0, 0.0, 0.0, 0.0, 0.0, 1.700579051926574E9, 0.0, 2023-11-21 10:04:11.926
41.0, -1051.627224877742, -1036.182169459125, -2990.5292976533533, 1087.6805886841523, 3513.1577865073427, 3876.3065786727166, 878.7588332603972, -3863.09669769963, -0.308, -0.234, 0.904, 192.0, 0.0, 0.0, 0.0, 0.0, 0.0, 0.0, 0.0, 0.0, 0.0, 1.700579051930614E9, 0.0, 2023-11-21 10:04:11.930
42.0, -1038.149122971192, -1020.5359483404098, -2980.2027917150012, 1096.8895073997387, 3522.478463945206, 3887.4153956670043, 883.2068304070033, -3857.844037752633, -0.308, -0.234, 0.904, 192.0, 0.0, 0.0, 0.0, 0.0, 0.0, 0.0, 0.0, 0.0, 0.0, 1.700579051935616E9, 0.0, 2023-11-21 10:04:11.935
43.0, -1018.5913465727981, -984.9966746564717, -2956.7111082924735, 1103.237402825046, 3523.0149058121333, 3884.777889821278, 880.5693245612771, -3861.420316865482, -0.308, -0.234, 0.904, 192.0, 0.0, 0.0, 0.0, 0.0, 0.0, 0.0, 0.0, 0.0, 0.0, 1.70057905193966E9, 0.0, 2023-11-21 10:04:11.939
44.0, -1015.5515093268764, -964.1201453352148, -2958.4545443599877, 1094.7660916764846, 3514.8788708304014, 3877.424165895482, 873.8414494802296, -3866.0247762232757, -0.31, -0.23600000000000002, 0.9, 192.0, 246.0, 80.0, 248.0, 160.0, 28.0, 32.0, 0.0, 0.0, 0.0, 1.700579051943674E9, 0.0, 2023-11-21 10:04:11.943
45.0, -1035.9139485256612, -995.144366639181, -2960.756774038884, 1090.8992398857165, 3511.8166818400246, 3872.1268024595743, 868.4993825554112, -3872.19385769294, -0.31, -0.23600000000000002, 0.9, 192.0, 0.0, 0.0, 0.0, 0.0, 0.0, 0.0, 0.0, 0.0, 0.0, 1.700579051946679E9, 0.0, 2023-11-21 10:04:11.946
46.0, -1063.3618907167781, -1031.4883031235104, -2962.5896170842193, 1098.7670539339847, 3515.571774908516, 3872.104450715119, 866.2642081098805, -3873.0432239822417, -0.31, -0.23600000000000002, 0.9, 192.0, 0.0, 0.0, 0.0, 0.0, 0.0, 0.0, 0.0, 0.0, 0.0, 1.700579051950709E9, 0.0, 2023-11-21 10:04:11.950
47.0, -1021.6088320742646, -1007.7731022564295, -2963.0366519733257, 1106.9924958935376, 3526.702943647259, 3885.806070066222, 869.3263971002576, -3869.0199099802867, -0.31, -0.23600000000000002, 0.9, 192.0, 0.0, 0.0, 0.0, 0.0, 0.0, 0.0, 0.0, 0.0, 0.0, 1.700579051954701E9, 0.0, 2023-11-21 10:04:11.954
48.0, -1007.5495848118765, -998.3630178407452, -2967.663463075574, 1100.689303957141, 3521.9867255671893, 3888.778852078778, 880.6140280501877, -3843.6953835124236, -0.31, -0.23600000000000002, 0.9, 192.0, 0.0, 0.0, 0.0, 0.0, 0.0, 0.0, 0.0, 0.0, 0.0, 1.700579051958703E9, 0.0, 2023-11-21 10:04:11.958
49.0, -1016.4232273606334, -993.9597241830497, -2961.5167333503646, 1099.7281789455628, 3514.633001641393, 3880.1287269745744, 871.0474814233162, -3852.1219911720746, -0.31, -0.23600000000000002, 0.9, 192.0, 0.0, 0.0, 0.0, 0.0, 0.0, 0.0, 0.0, 0.0, 0.0, 1.700579051963715E9, 0.0, 2023-11-21 10:04:11.963
50.0, -1039.601986360787, -1007.0354946894043, -2962.9695967399593, 1099.683475456652, 3513.5601179075384, 3881.7380525753565, 870.3545773452017, -3857.3746511190716, -0.31, -0.23600000000000002, 0.9, 192.0, 0.0, 0.0, 0.0, 0.0, 0.0, 0.0, 0.0, 0.0, 0.0, 1.700579051967724E9, 0.0, 2023-11-21 10:04:11.967
51.0, -1043.3794311737338, -1001.1569858976586, -2966.7246898084513, 1091.4133300081885, 3505.0664550145216, 3876.1501164615297, 865.3254348427577, -3863.141401188541, -0.31, -0.23600000000000002, 0.9, 192.0, 0.0, 0.0, 0.0, 0.0, 0.0, 0.0, 0.0, 0.0, 0.0, 1.700579051970725E9, 0.0, 2023-11-21 10:04:11.970
52.0, -1051.6719283666525, -1000.1064539082593, -2962.1425821951134, 1094.2967050429231, 3509.3579899499405, 3878.9217327739875, 867.7170714994754, -3859.2521976533176, -0.31, -0.23600000000000002, 0.9, 192.0, 0.0, 0.0, 0.0, 0.0, 0.0, 0.0, 0.0, 0.0, 0.0, 1.70057905197476E9, 0.0, 2023-11-21 10:04:11.974
53.0, -1035.757486314474, -1008.53306156791, -2956.085259447725, 1100.689303957141, 3521.494987189172, 3886.7224915888896, 874.6908157695312, -3851.362031860594, -0.31, -0.23600000000000002, 0.9, 192.0, 0.0, 0.0, 0.0, 0.0, 0.0, 0.0, 0.0, 0.0, 0.0, 1.700579051978745E9, 0.0, 2023-11-21 10:04:11.978
54.0, -1031.9576897570719, -1001.1346341532034, -2958.1639716820687, 1097.3588940333002, 3517.248155742664, 3882.274494442284, 870.9133709565843, -3852.367860361083, -0.304, -0.232, 0.898, 192.0, 246.0, 128.0, 248.0, 192.0, 28.0, 16.0, 0.0, 0.0, 0.0, 1.700579051982799E9, 0.0, 2023-11-21 10:04:11.982
55.0, -1004.9567824550609, -960.9014941336507, -2945.445829086999, 1103.5726789918756, 3518.3210394765188, 3883.7720613207894, 867.9405889440286, -3863.074345955175, -0.304, -0.232, 0.898, 192.0, 0.0, 0.0, 0.0, 0.0, 0.0, 0.0, 0.0, 0.0, 0.0, 1.700579051986776E9, 0.0, 2023-11-21 10:04:11.986
56.0, -1024.8051315313735, -985.466061290033, -2952.1290006791355, 1094.8554986543058, 3514.9459260637673, 3884.8225933101885, 872.3438826017241, -3852.2561016388063, -0.304, -0.232, 0.898, 192.0, 0.0, 0.0, 0.0, 0.0, 0.0, 0.0, 0.0, 0.0, 0.0, 1.700579051990778E9, 0.0, 2023-11-21 10:04:11.990
57.0, -1053.5494749008983, -1017.1608349276585, -2963.8413147737165, 1090.1169288297808, 3513.9400975632784, 3884.174392720985, 872.7909174908302, -3855.139476673541, -0.304, -0.232, 0.898, 192.0, 0.0, 0.0, 0.0, 0.0, 0.0, 0.0, 0.0, 0.0, 0.0, 1.700579051995783E9, 0.0, 2023-11-21 10:04:11.995
58.0, -1029.0072594889712, -1002.1628143981475, -2965.3612333966776, 1093.1120625867918, 3516.309382475541, 3885.3366834326607, 870.0193011783721, -3857.4193546079823, -0.304, -0.232, 0.898, 192.0, 0.0, 0.0, 0.0, 0.0, 0.0, 0.0, 0.0, 0.0, 0.0, 1.700579051998797E9, 0.0, 2023-11-21 10:04:11.998
59.0, -1031.2200821900467, -1001.6710760201307, -2964.82479152975, 1095.079016098859, 3513.64952488536, 3885.202572965929, 869.7287285004531, -3857.5981685636248, -0.304, -0.232, 0.898, 192.0, 0.0, 0.0, 0.0, 0.0, 0.0, 0.0, 0.0, 0.0, 0.0, 1.700579052002831E9, 0.0, 2023-11-21 10:04:12.002
60.0, -1028.4931693664992, -987.1424421241811, -2958.0075094708814, 1096.7777486774623, 3509.514452161128, 3879.1452502185407, 867.1359261436374, -3861.4426686099378, -0.304, -0.232, 0.898, 192.0, 0.0, 0.0, 0.0, 0.0, 0.0, 0.0, 0.0, 0.0, 0.0, 1.700579052006842E9, 0.0, 2023-11-21 10:04:12.006
61.0, -1027.755561799474, -961.0356046003825, -2955.213541413968, 1091.3462747748226, 3503.0547980135443, 3870.562180347703, 857.2564550943918, -3871.4115466370044, -0.304, -0.232, 0.898, 192.0, 0.0, 0.0, 0.0, 0.0, 0.0, 0.0, 0.0, 0.0, 0.0, 1.700579052010875E9, 0.0, 2023-11-21 10:04:12.010
62.0, -1050.2861202104236, -1002.7886632428961, -2963.7072043069847, 1091.4580334970992, 3508.061588771533, 3871.970340248387, 857.927007428051, -3879.5475816187363, -0.304, -0.232, 0.898, 192.0, 0.0, 0.0, 0.0, 0.0, 0.0, 0.0, 0.0, 0.0, 0.0, 1.7005790520148E9, 0.0, 2023-11-21 10:04:12.014
63.0, -1045.368736430256, -1023.3969716306892, -2954.4312303580323, 1105.0255423814706, 3526.121798291421, 3894.813823081711, 881.9551327175061, -3852.4125638499936, -0.304, -0.232, 0.898, 192.0, 0.0, 0.0, 0.0, 0.0, 0.0, 0.0, 0.0, 0.0, 0.0, 1.700579052019831E9, 0.0, 2023-11-21 10:04:12.019
64.0, -1027.7108583105635, -1002.498090564977, -2959.2368554159234, 1110.5017197730208, 3537.118856563432, 3908.2248697548953, 888.347731631724, -3841.57196778917, -0.302, -0.228, 0.904, 192.0, 246.0, 144.0, 248.0, 224.0, 28.0, 64.0, 0.0, 0.0, 0.0, 1.700579052023873E9, 0.0, 2023-11-21 10:04:12.023
65.0, -1024.469855364544, -1004.0850644213039, -2977.654692847096, 1094.0508358539148, 3521.0703040445214, 3892.5339451472696, 876.7248245149642, -3848.009270192298, -0.302, -0.228, 0.904, 192.0, 0.0, 0.0, 0.0, 0.0, 0.0, 0.0, 0.0, 0.0, 0.0, 1.700579052026866E9, 0.0, 2023-11-21 10:04:12.026
66.0, -1053.5271231564432, -1021.787646029907, -2975.2630561903784, 1089.9828183630489, 3515.7952923530693, 3886.141346233052, 869.5722662892659, -3857.397002863527, -0.302, -0.228, 0.904, 192.0, 0.0, 0.0, 0.0, 0.0, 0.0, 0.0, 0.0, 0.0, 0.0, 1.700579052030859E9, 0.0, 2023-11-21 10:04:12.030
67.0, -1051.3813556887337, -1014.8809569932172, -2969.2280851874457, 1088.820527651373, 3509.425045183307, 3882.207439208918, 864.0737371532605, -3863.3202151441833, -0.302, -0.228, 0.904, 192.0, 0.0, 0.0, 0.0, 0.0, 0.0, 0.0, 0.0, 0.0, 0.0, 1.700579052035971E9, 0.0, 2023-11-21 10:04:12.035
68.0, -1031.8682827792506, -985.8683926902286, -2950.340861122711, 1102.07511211337, 3516.5552516645494, 3889.9411427904543, 869.1252314001598, -3859.3863081200493, -0.302, -0.228, 0.904, 192.0, 0.0, 0.0, 0.0, 0.0, 0.0, 0.0, 0.0, 0.0, 0.0, 1.70057905203993E9, 0.0, 2023-11-21 10:04:12.039
69.0, -1017.4961110944881, -975.2289623295025, -2944.462352330965, 1107.5736412493757, 3520.9138418333346, 3894.6350091260683, 875.3837198476458, -3853.23957839484, -0.302, -0.228, 0.904, 192.0, 0.0, 0.0, 0.0, 0.0, 0.0, 0.0, 0.0, 0.0, 0.0, 1.700579052042892E9, 0.0, 2023-11-21 10:04:12.042
70.0, -1027.0626577213595, -997.1560236401587, -2949.402087855588, 1107.6183447382862, 3520.735027877692, 3893.338607947661, 875.9425134590285, -3849.2386161373397, -0.302, -0.228, 0.904, 192.0, 0.0, 0.0, 0.0, 0.0, 0.0, 0.0, 0.0, 0.0, 0.0, 1.7005790520469E9, 0.0, 2023-11-21 10:04:12.046
71.0, -1045.949881786094, -1012.5340238254099, -2951.7043175344847, 1108.6018214943197, 3523.5960511679714, 3893.4056631810267, 874.3555396027017, -3852.032584194253, -0.302, -0.228, 0.904, 192.0, 0.0, 0.0, 0.0, 0.0, 0.0, 0.0, 0.0, 0.0, 0.0, 1.700579052053912E9, 0.0, 2023-11-21 10:04:12.053
72.0, -1027.82261703284, -990.4505003035665, -2947.055154687781, 1104.690266214641, 3512.9789725517003, 3878.6311600960685, 863.7384609864308, -3859.6545290535128, -0.302, -0.228, 0.904, 192.0, 0.0, 0.0, 0.0, 0.0, 0.0, 0.0, 0.0, 0.0, 0.0, 1.700579052057927E9, 0.0, 2023-11-21 10:04:12.057
73.0, -1035.6457275921975, -990.629314259209, -2960.309739149778, 1093.179117820158, 3502.8536323134463, 3868.0587849687086, 854.8871701821292, -3868.1258402020744, -0.302, -0.228, 0.904, 192.0, 0.0, 0.0, 0.0, 0.0, 0.0, 0.0, 0.0, 0.0, 0.0, 1.700579052060923E9, 0.0, 2023-11-21 10:04:12.060
74.0, -1060.947902315605, -1017.9207942391389, -2975.106593979191, 1083.7466816600183, 3500.1937747232646, 3868.4834681133593, 852.6743474810538, -3870.6068838366136, -0.3, -0.226, 0.902, 192.0, 246.0, 160.0, 248.0, 240.0, 28.0, 48.0, 0.0, 0.0, 0.0, 1.700579052063928E9, 0.0, 2023-11-21 10:04:12.063
75.0, -1021.3406111408009, -1000.0617504193486, -2961.1367536946245, 1096.1518998327138, 3517.561080165038, 3887.393043922549, 871.9639029459838, -3845.0141364352867, -0.3, -0.226, 0.902, 192.0, 0.0, 0.0, 0.0, 0.0, 0.0, 0.0, 0.0, 0.0, 0.0, 1.700579052067951E9, 0.0, 2023-11-21 10:04:12.067
76.0, -1029.1637217001585, -996.5301747954101, -2956.0629077032695, 1100.5551934904092, 3517.963411565234, 3888.398872423038, 872.7685657463749, -3844.947081201921, -0.3, -0.226, 0.902, 192.0, 0.0, 0.0, 0.0, 0.0, 0.0, 0.0, 0.0, 0.0, 0.0, 1.700579052070944E9, 0.0, 2023-11-21 10:04:12.070
77.0, -1053.147143500703, -1010.2988493798792, -2962.053175217292, 1094.2967050429231, 3506.8769463154017, 3878.787622307256, 862.1961906190146, -3859.6098255646025, -0.3, -0.226, 0.902, 192.0, 0.0, 0.0, 0.0, 0.0, 0.0, 0.0, 0.0, 0.0, 0.0, 1.700579052074938E9, 0.0, 2023-11-21 10:04:12.074
78.0, -1043.178265473636, -1014.3445151262898, -2965.607102585686, 1092.4415102531327, 3506.2958009595636, 3882.296846186739, 869.0805279112492, -3857.486409841348, -0.3, -0.226, 0.902, 192.0, 0.0, 0.0, 0.0, 0.0, 0.0, 0.0, 0.0, 0.0, 0.0, 1.700579052078954E9, 0.0, 2023-11-21 10:04:12.078
79.0, -1022.8605297637617, -992.886840449195, -2950.340861122711, 1101.5833737353532, 3517.672838887315, 3894.299732959239, 882.5586298177993, -3843.4048108345046, -0.3, -0.226, 0.902, 192.0, 0.0, 0.0, 0.0, 0.0, 0.0, 0.0, 0.0, 0.0, 0.0, 1.700579052081961E9, 0.0, 2023-11-21 10:04:12.081
80.0, -1028.7613902999628, -990.8751834482174, -2952.084297190225, 1100.2422690680348, 3513.046027785066, 3886.946009033443, 875.0260919363609, -3852.9266539724654, -0.3, -0.226, 0.902, 192.0, 0.0, 0.0, 0.0, 0.0, 0.0, 0.0, 0.0, 0.0, 0.0, 1.700579052085972E9, 0.0, 2023-11-21 10:04:12.085
81.0, -1031.0636199788596, -999.6594190191531, -2967.4846491199314, 1093.0897108423367, 3507.7263126047033, 3878.139421718052, 862.3079493412912, -3869.779869291767, -0.3, -0.226, 0.902, 192.0, 0.0, 0.0, 0.0, 0.0, 0.0, 0.0, 0.0, 0.0, 0.0, 1.700579052091018E9, 0.0, 2023-11-21 10:04:12.091
82.0, -1037.8809020377282, -1005.0685411773374, -2969.5857130987306, 1087.6358851952416, 3504.55236489205, 3877.714738573401, 868.8123069777855, -3860.2580261538064, -0.3, -0.226, 0.902, 192.0, 0.0, 0.0, 0.0, 0.0, 0.0, 0.0, 0.0, 0.0, 0.0, 1.700579052094939E9, 0.0, 2023-11-21 10:04:12.094
83.0, -1022.0782187078261, -980.1016426207594, -2958.2757304043453, 1087.3453125173228, 3499.7243880897036, 3876.083061228164, 866.6441877656207, -3862.359090132605, -0.3, -0.226, 0.902, 192.0, 0.0, 0.0, 0.0, 0.0, 0.0, 0.0, 0.0, 0.0, 0.0, 1.700579052099042E9, 0.0, 2023-11-21 10:04:12.099
84.0, -1022.5699570858428, -989.0423404028822, -2949.983233211426, 1101.8962981577276, 3508.9556585497453, 3888.1530032340293, 871.3604058456905, -3859.229845908862, -0.3, -0.228, 0.9, 192.0, 246.0, 160.0, 248.0, 224.0, 28.0, 32.0, 0.0, 0.0, 0.0, 1.700579052105065E9, 0.0, 2023-11-21 10:04:12.105
85.0, -1040.8760357947392, -1007.2143086450469, -2951.056116945281, 1102.0527603689147, 3506.452263170751, 3887.460099155915, 872.5674000462772, -3859.6768807979684, -0.3, -0.228, 0.9, 192.0, 0.0, 0.0, 0.0, 0.0, 0.0, 0.0, 0.0, 0.0, 0.0, 1.70057905210798E9, 0.0, 2023-11-21 10:04:12.107
86.0, -1034.3269746693343, -1002.6769045206195, -2956.1970181700017, 1108.043027882937, 3512.710751618237, 3888.8906108010547, 873.6402837801319, -3856.1453051740295, -0.3, -0.228, 0.9, 192.0, 0.0, 0.0, 0.0, 0.0, 0.0, 0.0, 0.0, 0.0, 0.0, 1.700579052111041E9, 0.0, 2023-11-21 10:04:12.111
87.0, -1035.1539892141807, -1013.7410180259965, -2961.6508438170963, 1109.5405947614427, 3516.018809797622, 3887.5942096226468, 868.4546790665006, -3864.5719128336805, -0.3, -0.228, 0.9, 192.0, 0.0, 0.0, 0.0, 0.0, 0.0, 0.0, 0.0, 0.0, 0.0, 1.700579052115055E9, 0.0, 2023-11-21 10:04:12.115
88.0, -1035.3551549142785, -1003.0568841763597, -2951.3913931121106, 1108.3112488164006, 3514.8565190859463, 3886.498974144337, 873.1932488910257, -3859.229845908862, -0.3, -0.228, 0.9, 192.0, 0.0, 0.0, 0.0, 0.0, 0.0, 0.0, 0.0, 0.0, 0.0, 1.700579052119034E9, 0.0, 2023-11-21 10:04:12.119
89.0, -1025.63214607622, -990.33874158129, -2958.208675170979, 1103.6397342252415, 3512.442530684773, 3885.9848840218647, 870.5780947897548, -3867.8352675241554, -0.3, -0.228, 0.9, 192.0, 0.0, 0.0, 0.0, 0.0, 0.0, 0.0, 0.0, 0.0, 0.0, 1.700579052124072E9, 0.0, 2023-11-21 10:04:12.124
90.0, -1033.9022915246835, -992.7750817269185, -2972.3349776667333, 1094.2296498095573, 3504.2617922141308, 3877.692386828946, 872.8356209797408, -3856.1900086629403, -0.3, -0.228, 0.9, 192.0, 0.0, 0.0, 0.0, 0.0, 0.0, 0.0, 0.0, 0.0, 0.0, 1.700579052127101E9, 0.0, 2023-11-21 10:04:12.127
91.0, -1031.4435996345997, -984.9743229120163, -2966.3223584082557, 1094.1178910872807, 3502.1383764908765, 3870.584532092158, 867.5606092882883, -3862.5826075771583, -0.3, -0.228, 0.9, 192.0, 0.0, 0.0, 0.0, 0.0, 0.0, 0.0, 0.0, 0.0, 0.0, 1.700579052131078E9, 0.0, 2023-11-21 10:04:12.131
92.0, -1036.0257072479376, -1008.6224685457312, -2964.958901996482, 1097.3365422888448, 3508.3074579605413, 3880.978093263876, 881.0387111948385, -3852.032584194253, -0.3, -0.228, 0.9, 192.0, 0.0, 0.0, 0.0, 0.0, 0.0, 0.0, 0.0, 0.0, 0.0, 1.700579052134081E9, 0.0, 2023-11-21 10:04:12.134
93.0, -1053.594178389809, -1015.9761924715273, -2961.4943816059094, 1098.7894056784398, 3504.3064957030415, 3874.7643083053003, 872.5897517907324, -3863.6331395665575, -0.3, -0.228, 0.9, 192.0, 0.0, 0.0, 0.0, 0.0, 0.0, 0.0, 0.0, 0.0, 0.0, 1.700579052138078E9, 0.0, 2023-11-21 10:04:12.138
94.0, -1033.7011258245857, -1014.0762941928261, -2967.283483419834, 1095.0343126099483, 3502.585411379983, 3873.490258871348, 868.1864581330369, -3867.030604723764, -0.304, -0.232, 0.904, 192.0, 246.0, 128.0, 248.0, 192.0, 28.0, 64.0, 0.0, 0.0, 0.0, 1.700579052142086E9, 0.0, 2023-11-21 10:04:12.142
95.0, -1045.4581434080771, -1029.4095908891668, -2970.3009689213004, 1104.1985278366242, 3519.863309843935, 3890.3434741906494, 881.3069321283022, -3862.1802761769627, -0.304, -0.232, 0.904, 192.0, 0.0, 0.0, 0.0, 0.0, 0.0, 0.0, 0.0, 0.0, 0.0, 1.700579052148108E9, 0.0, 2023-11-21 10:04:12.148
96.0, -1043.6476521071975, -1013.2716313924351, -2970.144506710113, 1099.1246818452696, 3514.0295045411, 3887.683616600468, 881.0610629392938, -3863.1190494440857, -0.304, -0.232, 0.904, 192.0, 0.0, 0.0, 0.0, 0.0, 0.0, 0.0, 0.0, 0.0, 0.0, 1.700579052152109E9, 0.0, 2023-11-21 10:04:12.152
97.0, -1042.2841956954237, -1008.8906894791949, -2974.056061989792, 1092.016827108482, 3504.8205858255133, 3878.1170699735967, 876.5907140482324, -3866.00242447882, -0.304, -0.232, 0.904, 192.0, 0.0, 0.0, 0.0, 0.0, 0.0, 0.0, 0.0, 0.0, 0.0, 1.700579052156134E9, 0.0, 2023-11-21 10:04:12.156
98.0, -1044.7205358410522, -1011.2823261359127, -2970.3680241546663, 1099.7281789455628, 3511.928440562301, 3879.8828577855656, 877.4624320819894, -3863.2531599108174, -0.304, -0.232, 0.904, 192.0, 0.0, 0.0, 0.0, 0.0, 0.0, 0.0, 0.0, 0.0, 0.0, 1.700579052160128E9, 0.0, 2023-11-21 10:04:12.160
99.0, -1024.402800131178, -985.3990060566672, -2958.2980821488004, 1106.657219726708, 3514.320077219019, 3878.072366484686, 875.1378506586374, -3860.794468020734, -0.304, -0.232, 0.904, 192.0, 0.0, 0.0, 0.0, 0.0, 0.0, 0.0, 0.0, 0.0, 0.0, 1.70057905216314E9, 0.0, 2023-11-21 10:04:12.163
100.0, -1026.0344774764153, -994.33970383879, -2960.4214978720547, 1102.1868708356465, 3511.6602196288372, 3872.3503199041274, 869.3711005891682, -3862.783773277256, -0.304, -0.232, 0.904, 192.0, 0.0, 0.0, 0.0, 0.0, 0.0, 0.0, 0.0, 0.0, 0.0, 1.700579052166171E9, 0.0, 2023-11-21 10:04:12.166
101.0, -1011.7070092805636, -988.1929741135806, -2951.4584483454764, 1104.3326383033561, 3515.907051075346, 3878.653511840524, 875.9201617145732, -3856.1006016851193, -0.304, -0.232, 0.904, 192.0, 0.0, 0.0, 0.0, 0.0, 0.0, 0.0, 0.0, 0.0, 0.0, 1.700579052170152E9, 0.0, 2023-11-21 10:04:12.170
102.0, -1031.9129862681611, -992.953895682561, -2952.933663479527, 1102.4997952580209, 3511.637867884382, 3877.044186239742, 879.7199582719754, -3853.8654272395884, -0.304, -0.232, 0.904, 192.0, 0.0, 0.0, 0.0, 0.0, 0.0, 0.0, 0.0, 0.0, 0.0, 1.700579052174155E9, 0.0, 2023-11-21 10:04:12.174
103.0, -1061.238474993524, -1021.9888117300048, -2978.079375991747, 1093.0673590978813, 3505.9158213038236, 3873.132630960063, 877.9318187155508, -3867.947026246432, -0.304, -0.232, 0.904, 192.0, 0.0, 0.0, 0.0, 0.0, 0.0, 0.0, 0.0, 0.0, 0.0, 1.700579052179169E9, 0.0, 2023-11-21 10:04:12.179
104.0, -1041.7701055729515, -1015.9985442159825, -2976.090070735225, 1097.0012661220153, 3512.5989928959602, 3879.167601962996, 881.731615272953, -3861.0626889541973, -0.304, -0.23600000000000002, 0.902, 192.0, 246.0, 128.0, 248.0, 160.0, 28.0, 48.0, 0.0, 0.0, 0.0, 1.700579052183188E9, 0.0, 2023-11-21 10:04:12.183
105.0, -1031.2200821900467, -1006.2978871223793, -2965.607102585686, 1097.8729841557722, 3507.7263126047033, 3872.5738373486806, 875.9425134590285, -3863.6331395665575, -0.304, -0.23600000000000002, 0.902, 192.0, 0.0, 0.0, 0.0, 0.0, 0.0, 0.0, 0.0, 0.0, 0.0, 1.700579052186191E9, 0.0, 2023-11-21 10:04:12.186
106.0, -1032.9411665131054, -1005.0461894328821, -2963.0366519733257, 1099.2587923120013, 3509.8497283279576, 3874.2502181828286, 868.4993825554112, -3876.6642065840015, -0.304, -0.23600000000000002, 0.902, 192.0, 0.0, 0.0, 0.0, 0.0, 0.0, 0.0, 0.0, 0.0, 0.0, 1.700579052190205E9, 0.0, 2023-11-21 10:04:12.190
107.0, -1039.6913933386081, -1009.8965179796837, -2964.1318874516355, 1100.9351731461493, 3518.2986877320636, 3882.2521426978283, 878.1329844156486, -3860.3250813871723, -0.304, -0.23600000000000002, 0.902, 192.0, 0.0, 0.0, 0.0, 0.0, 0.0, 0.0, 0.0, 0.0, 0.0, 1.700579052194216E9, 0.0, 2023-11-21 10:04:12.194
108.0, -1040.0713729943482, -1012.9587069700608, -2964.5789223407414, 1095.8613271547947, 3513.895394074368, 3880.4863548858593, 880.1669931610816, -3854.4689243398816, -0.304, -0.23600000000000002, 0.902, 192.0, 0.0, 0.0, 0.0, 0.0, 0.0, 0.0, 0.0, 0.0, 0.0, 1.700579052198229E9, 0.0, 2023-11-21 10:04:12.198
109.0, -1053.9071028121832, -1020.8488727627841, -2970.9715212549595, 1090.6533706967082, 3507.1675189933208, 3869.8245727806775, 866.375966832157, -3874.518439116292, -0.304, -0.23600000000000002, 0.902, 192.0, 0.0, 0.0, 0.0, 0.0, 0.0, 0.0, 0.0, 0.0, 0.0, 1.700579052202211E9, 0.0, 2023-11-21 10:04:12.202
110.0, -1053.1918469896134, -1014.72449478203, -2974.6148556011744, 1093.1120625867918, 3508.508623660639, 3870.562180347703, 872.0309581793498, -3866.8964942570324, -0.304, -0.23600000000000002, 0.902, 192.0, 0.0, 0.0, 0.0, 0.0, 0.0, 0.0, 0.0, 0.0, 0.0, 1.700579052207184E9, 0.0, 2023-11-21 10:04:12.207
111.0, -1008.9800964570161, -991.5904392707872, -2964.981253740937, 1108.7359319610516, 3521.9420220782786, 3884.487317143359, 887.6771792980647, -3849.015098692787, -0.304, -0.23600000000000002, 0.902, 192.0, 0.0, 0.0, 0.0, 0.0, 0.0, 0.0, 0.0, 0.0, 0.0, 1.700579052211242E9, 0.0, 2023-11-21 10:04:12.211
112.0, -1008.0860266788038, -986.6730554906196, -2963.9083700070823, 1109.3841325502553, 3523.774865123614, 3889.6729218569903, 892.4604526115004, -3844.209473634896, -0.304, -0.23600000000000002, 0.902, 192.0, 0.0, 0.0, 0.0, 0.0, 0.0, 0.0, 0.0, 0.0, 0.0, 1.700579052214248E9, 0.0, 2023-11-21 10:04:12.214
113.0, -1031.6447653346975, -1006.499052822477, -2965.54004735232, 1101.4269115241661, 3512.8672138294237, 3882.0509769977307, 881.3516356172128, -3853.753668517312, -0.304, -0.23600000000000002, 0.902, 192.0, 0.0, 0.0, 0.0, 0.0, 0.0, 0.0, 0.0, 0.0, 0.0, 1.70057905221828E9, 0.0, 2023-11-21 10:04:12.218
114.0, -1039.2220067050466, -997.1336718957034, -2964.82479152975, 1098.2976673004232, 3508.3968649383623, 3874.1831629494627, 872.3885860906347, -3866.2482936678284, -0.31, -0.23600000000000002, 0.912, 192.0, 246.0, 80.0, 248.0, 160.0, 28.0, 128.0, 0.0, 0.0, 0.0, 1.70057905222225E9, 0.0, 2023-11-21 10:04:12.222
115.0, -1042.8653410512616, -1007.080198178315, -2976.9394370245263, 1088.105271828803, 3498.74091133367, 3864.393098878038, 865.9289319430509, -3871.7915262927445, -0.31, -0.23600000000000002, 0.912, 192.0, 0.0, 0.0, 0.0, 0.0, 0.0, 0.0, 0.0, 0.0, 0.0, 1.700579052226267E9, 0.0, 2023-11-21 10:04:12.226
116.0, -1050.464934166066, -1031.5777101013316, -2968.848105531705, 1101.5163185019874, 3513.1130830184325, 3880.106375230119, 883.9891414629391, -3852.367860361083, -0.31, -0.23600000000000002, 0.912, 192.0, 0.0, 0.0, 0.0, 0.0, 0.0, 0.0, 0.0, 0.0, 0.0, 1.700579052230273E9, 0.0, 2023-11-21 10:04:12.230
117.0, -1024.2016344310803, -1004.0627126768486, -2962.701375806496, 1109.272373827979, 3521.092655788977, 3886.431918910971, 886.0678536972825, -3849.1939126484294, -0.31, -0.23600000000000002, 0.912, 192.0, 0.0, 0.0, 0.0, 0.0, 0.0, 0.0, 0.0, 0.0, 0.0, 1.700579052236306E9, 0.0, 2023-11-21 10:04:12.236
118.0, -1010.142387168692, -985.7342822234967, -2964.8024397852946, 1104.1314726032583, 3519.6621441438374, 3882.4086049090156, 878.1553361601038, -3848.679822525957, -0.31, -0.23600000000000002, 0.912, 192.0, 0.0, 0.0, 0.0, 0.0, 0.0, 0.0, 0.0, 0.0, 0.0, 1.700579052240347E9, 0.0, 2023-11-21 10:04:12.240
119.0, -1055.8293528353397, -1029.8342740338176, -2977.073547491258, 1097.6047632223085, 3514.834167341491, 3882.1627357200073, 879.6305512941541, -3860.0345087092533, -0.31, -0.23600000000000002, 0.912, 192.0, 0.0, 0.0, 0.0, 0.0, 0.0, 0.0, 0.0, 0.0, 0.0, 1.700579052244328E9, 0.0, 2023-11-21 10:04:12.244
120.0, -1048.050945764893, -1024.91689025365, -2977.274713191356, 1098.2976673004232, 3515.7505888641585, 3881.0898519861526, 882.5139263288887, -3854.357165617605, -0.31, -0.23600000000000002, 0.912, 192.0, 0.0, 0.0, 0.0, 0.0, 0.0, 0.0, 0.0, 0.0, 0.0, 1.700579052247307E9, 0.0, 2023-11-21 10:04:12.247
121.0, -1045.949881786094, -1015.8197302603401, -2967.1270212086465, 1100.1305103457582, 3513.8730423299126, 3874.1831629494627, 875.7189960144754, -3859.9674534758874, -0.31, -0.23600000000000002, 0.912, 192.0, 0.0, 0.0, 0.0, 0.0, 0.0, 0.0, 0.0, 0.0, 0.0, 1.700579052250335E9, 0.0, 2023-11-21 10:04:12.250
122.0, -1029.6107565892646, -999.3911980856894, -2952.084297190225, 1109.5182430169873, 3520.6903243887814, 3879.368767663094, 877.5294873153553, -3859.0510319532195, -0.31, -0.23600000000000002, 0.912, 192.0, 0.0, 0.0, 0.0, 0.0, 0.0, 0.0, 0.0, 0.0, 0.0, 1.70057905225442E9, 0.0, 2023-11-21 10:04:12.254
123.0, -1032.1812072016248, -1001.8945934646838, -2949.7373640224178, 1106.8360336823505, 3516.018809797622, 3875.9042472725214, 873.9308564580508, -3860.235674409351, -0.31, -0.23600000000000002, 0.912, 192.0, 0.0, 0.0, 0.0, 0.0, 0.0, 0.0, 0.0, 0.0, 0.0, 1.700579052258393E9, 0.0, 2023-11-21 10:04:12.258
124.0, -1053.4824196675324, -1019.1054366952702, -2967.1046694641914, 1097.3812457777556, 3505.960524792734, 3865.309520400706, 860.2292371069476, -3873.177334448974, -0.31, -0.23600000000000002, 0.912, 192.0, 0.0, 0.0, 0.0, 0.0, 0.0, 0.0, 0.0, 0.0, 0.0, 1.700579052262404E9, 0.0, 2023-11-21 10:04:12.262
125.0, -1040.9654427725604, -1016.2220616605356, -2978.213486458479, 1094.6990364431188, 3504.1723852363093, 3861.755593032312, 856.250626593903, -3881.0898519861526, -0.31, -0.226, 0.912, 192.0, 246.0, 80.0, 248.0, 240.0, 28.0, 128.0, 0.0, 0.0, 0.0, 1.700579052267428E9, 0.0, 2023-11-21 10:04:12.267
126.0, -999.4582533190553, -978.4252617866114, -2968.0881462202246, 1105.2490598260235, 3521.092655788977, 3879.324064174183, 878.4682605824781, -3852.233749894351, -0.31, -0.226, 0.912, 192.0, 0.0, 0.0, 0.0, 0.0, 0.0, 0.0, 0.0, 0.0, 0.0, 1.700579052270405E9, 0.0, 2023-11-21 10:04:12.270
127.0, -1014.1209976817368, -1000.9334684531055, -2968.915160765071, 1104.4891005145432, 3524.311306990541, 3883.7273578318786, 885.151432174615, -3847.204607391907, -0.31, -0.226, 0.912, 192.0, 0.0, 0.0, 0.0, 0.0, 0.0, 0.0, 0.0, 0.0, 0.0, 1.700579052274387E9, 0.0, 2023-11-21 10:04:12.274
128.0, -1030.4377711341108, -1011.4611400915552, -2967.529352608842, 1102.723312702574, 3519.0362952990886, 3874.6078460941135, 875.473126825467, -3863.4766773553706, -0.31, -0.226, 0.912, 192.0, 0.0, 0.0, 0.0, 0.0, 0.0, 0.0, 0.0, 0.0, 0.0, 1.700579052278387E9, 0.0, 2023-11-21 10:04:12.278
129.0, -1026.7944367878958, -983.856735689251, -2956.1076111921802, 1103.3938650362331, 3514.051856285555, 3868.5058198578145, 864.0290336643499, -3878.8546775406217, -0.31, -0.226, 0.912, 192.0, 0.0, 0.0, 0.0, 0.0, 0.0, 0.0, 0.0, 0.0, 0.0, 1.700579052282391E9, 0.0, 2023-11-21 10:04:12.282
130.0, -1027.8449687772952, -1008.4436545900887, -2955.3923553696104, 1109.0488563834258, 3522.500815689661, 3882.922695031488, 877.2612663818916, -3865.9577209899094, -0.31, -0.226, 0.912, 192.0, 0.0, 0.0, 0.0, 0.0, 0.0, 0.0, 0.0, 0.0, 0.0, 1.700579052286417E9, 0.0, 2023-11-21 10:04:12.286
131.0, -1020.2900791514015, -1009.0024482014715, -2956.6887565480183, 1109.942926161638, 3517.0693417870216, 3879.391119407549, 867.9852924329392, -3869.28813091375, -0.31, -0.226, 0.912, 192.0, 0.0, 0.0, 0.0, 0.0, 0.0, 0.0, 0.0, 0.0, 0.0, 1.700579052290408E9, 0.0, 2023-11-21 10:04:12.290
132.0, -1006.6778667781194, -988.2153258580358, -2958.208675170979, 1103.1926993361353, 3508.486271916184, 3877.982959506865, 870.1310599006487, -3856.52528482977, -0.31, -0.226, 0.912, 192.0, 0.0, 0.0, 0.0, 0.0, 0.0, 0.0, 0.0, 0.0, 0.0, 1.700579052295427E9, 0.0, 2023-11-21 10:04:12.295
133.0, -1022.5029018524768, -1013.0034104589714, -2967.439945631021, 1092.1285858307583, 3505.5581933925387, 3881.2239624528843, 879.4964408274222, -3844.7012120129125, -0.31, -0.226, 0.912, 192.0, 0.0, 0.0, 0.0, 0.0, 0.0, 0.0, 0.0, 0.0, 0.0, 1.700579052298448E9, 0.0, 2023-11-21 10:04:12.298
134.0, -1050.0626027658705, -1034.304622924879, -2963.975425240448, 1094.006132365004, 3504.9099928033347, 3879.681692085468, 880.0105309498944, -3848.0539736812084, -0.31, -0.226, 0.912, 192.0, 0.0, 0.0, 0.0, 0.0, 0.0, 0.0, 0.0, 0.0, 0.0, 1.700579052302416E9, 0.0, 2023-11-21 10:04:12.302
135.0, -1053.1247917562475, -1019.1501401841808, -2952.1066489346804, 1100.3540277903114, 3504.485309658684, 3876.5077443728146, 873.282655868847, -3859.1851424199517, -0.3, -0.228, 0.914, 192.0, 246.0, 160.0, 248.0, 224.0, 28.0, 144.0, 0.0, 0.0, 0.0, 1.700579052306431E9, 0.0, 2023-11-21 10:04:12.306
136.0, -1057.1034022692922, -1037.5679776153538, -2970.792707299317, 1097.0906730998365, 3501.601934623949, 3875.367805405594, 871.6733302680648, -3863.163752932996, -0.3, -0.228, 0.914, 192.0, 0.0, 0.0, 0.0, 0.0, 0.0, 0.0, 0.0, 0.0, 0.0, 1.700579052310447E9, 0.0, 2023-11-21 10:04:12.310
137.0, -1039.7137450830633, -1027.7332100550188, -2981.633303360141, 1091.6815509416522, 3498.0256555111, 3875.9042472725214, 869.5722662892659, -3863.43197386646, -0.3, -0.228, 0.914, 192.0, 0.0, 0.0, 0.0, 0.0, 0.0, 0.0, 0.0, 0.0, 0.0, 1.700579052314474E9, 0.0, 2023-11-21 10:04:12.314
138.0, -1031.175378701136, -1009.1589104126585, -2977.632341102641, 1089.3569695183003, 3494.73994907617, 3876.6642065840015, 871.248647123414, -3855.1618284179963, -0.3, -0.228, 0.914, 192.0, 0.0, 0.0, 0.0, 0.0, 0.0, 0.0, 0.0, 0.0, 0.0, 1.700579052320471E9, 0.0, 2023-11-21 10:04:12.320
139.0, -1040.9654427725604, -1017.8760907502283, -2965.987082241426, 1098.1859085781466, 3503.1665567358204, 3881.9615700199092, 877.7977082488189, -3854.558331317703, -0.3, -0.228, 0.914, 192.0, 0.0, 0.0, 0.0, 0.0, 0.0, 0.0, 0.0, 0.0, 0.0, 1.700579052323491E9, 0.0, 2023-11-21 10:04:12.323
140.0, -1035.466913636555, -1019.2171954175468, -2958.9015792490936, 1105.718446459585, 3512.643696384871, 3888.3765206785824, 878.4012053491123, -3857.7993342637224, -0.3, -0.228, 0.914, 192.0, 0.0, 0.0, 0.0, 0.0, 0.0, 0.0, 0.0, 0.0, 0.0, 1.700579052327481E9, 0.0, 2023-11-21 10:04:12.327
141.0, -1020.4465413625886, -999.0335701744044, -2962.723727550951, 1097.3588940333002, 3505.513489903628, 3882.073328742186, 880.7481385169195, -3850.2444446378286, -0.3, -0.228, 0.914, 192.0, 0.0, 0.0, 0.0, 0.0, 0.0, 0.0, 0.0, 0.0, 0.0, 1.700579052330476E9, 0.0, 2023-11-21 10:04:12.330
142.0, -1027.9120240106613, -988.0141601579381, -2952.82190475725, 1098.8341091673506, 3502.4960044021614, 3875.792488550245, 875.2943128698246, -3861.2862063987504, -0.3, -0.228, 0.914, 192.0, 0.0, 0.0, 0.0, 0.0, 0.0, 0.0, 0.0, 0.0, 0.0, 1.700579052334446E9, 0.0, 2023-11-21 10:04:12.334
143.0, -1026.2356431765131, -1004.7779684994184, -2945.021145942348, 1111.529900017965, 3515.1023882749546, 3888.488279400859, 880.7928420058302, -3854.3124621286947, -0.3, -0.228, 0.914, 192.0, 0.0, 0.0, 0.0, 0.0, 0.0, 0.0, 0.0, 0.0, 0.0, 1.7005790523385E9, 0.0, 2023-11-21 10:04:12.338
